3/04/2024,2:39:49 PM
Software,STS IL/PDL,IL,Normal,1.3.3.0
TSL,SANTEC,TSL-570,23020004,0022.0017.0009
PowerMeter,SANTEC,MPM-210H,23020023,Ver.1.19
,Module0,MPM-211,23020025M211,Ver.1.22
Power Monitor,DAQ
Start,1600,nm
Stop,1680,nm
Step,0.01,nm
Speed,20,nm/s
Source Power,10,dBm
Averaging Time,0.5,msec
Power meter range,23020025M211,(Ch1),-30～+10dBm,-40～ 0dBm
--HEADER END--
--DATA START--
Wavelength(nm),IL_M1_S0_CH1
1600,-0.08427
1600.01,-0.08496
1600.02,-0.08476
1600.03,-0.08519
1600.04,-0.08503
1600.05,-0.08429
1600.06,-0.0852
1600.07,-0.08474
1600.08,-0.08491
1600.09,-0.0842
1600.1,-0.08509
1600.11,-0.08515
1600.12,-0.08477
1600.13,-0.08488
1600.14,-0.08519
1600.15,-0.0851
1600.16,-0.08505
1600.17,-0.08497
1600.18,-0.08441
1600.19,-0.08513
1600.2,-0.08503
1600.21,-0.0849
1600.22,-0.08382
1600.23,-0.08567
1600.24,-0.08418
1600.25,-0.08568
1600.26,-0.08466
1600.27,-0.0852
1600.28,-0.08517
1600.29,-0.08469
1600.3,-0.08516
1600.31,-0.08514
1600.32,-0.08505
1600.33,-0.08519
1600.34,-0.08518
1600.35,-0.08566
1600.36,-0.0845
1600.37,-0.08499
1600.38,-0.0853
1600.39,-0.08516
1600.4,-0.08531
1600.41,-0.0851
1600.42,-0.08516
1600.43,-0.08568
1600.44,-0.08537
1600.45,-0.08506
1600.46,-0.08554
1600.47,-0.08522
1600.48,-0.0856
1600.49,-0.08569
1600.5,-0.08542
1600.51,-0.08572
1600.52,-0.08563
1600.53,-0.08524
1600.54,-0.08506
1600.55,-0.08575
1600.56,-0.08571
1600.57,-0.08562
1600.58,-0.08559
1600.59,-0.0862
1600.6,-0.0856
1600.61,-0.08579
1600.62,-0.0857
1600.63,-0.08599
1600.64,-0.08522
1600.65,-0.08599
1600.66,-0.08574
1600.67,-0.08578
1600.68,-0.08586
1600.69,-0.08566
1600.7,-0.08531
1600.71,-0.08678
1600.72,-0.08543
1600.73,-0.08575
1600.74,-0.08527
1600.75,-0.08606
1600.76,-0.08566
1600.77,-0.08541
1600.78,-0.08616
1600.79,-0.08558
1600.8,-0.08568
1600.81,-0.08568
1600.82,-0.08626
1600.83,-0.08521
1600.84,-0.08604
1600.85,-0.08534
1600.86,-0.0855
1600.87,-0.08531
1600.88,-0.08591
1600.89,-0.08538
1600.9,-0.08589
1600.91,-0.08622
1600.92,-0.08512
1600.93,-0.08582
1600.94,-0.08576
1600.95,-0.08606
1600.96,-0.08547
1600.97,-0.08587
1600.98,-0.08542
1600.99,-0.08575
1601,-0.08583
1601.01,-0.08572
1601.02,-0.08537
1601.03,-0.08609
1601.04,-0.08564
1601.05,-0.08548
1601.06,-0.08547
1601.07,-0.0856
1601.08,-0.08529
1601.09,-0.08543
1601.1,-0.08579
1601.11,-0.0855
1601.12,-0.08607
1601.13,-0.08545
1601.14,-0.08576
1601.15,-0.08534
1601.16,-0.08575
1601.17,-0.0853
1601.18,-0.08571
1601.19,-0.0858
1601.2,-0.08577
1601.21,-0.08531
1601.22,-0.08565
1601.23,-0.08622
1601.24,-0.08578
1601.25,-0.08613
1601.26,-0.08513
1601.27,-0.08606
1601.28,-0.08575
1601.29,-0.08553
1601.3,-0.0856
1601.31,-0.08559
1601.32,-0.08545
1601.33,-0.08629
1601.34,-0.0861
1601.35,-0.0855
1601.36,-0.0858
1601.37,-0.08629
1601.38,-0.0857
1601.39,-0.08573
1601.4,-0.08599
1601.41,-0.08565
1601.42,-0.08548
1601.43,-0.08554
1601.44,-0.08627
1601.45,-0.08546
1601.46,-0.08621
1601.47,-0.08598
1601.48,-0.08627
1601.49,-0.08611
1601.5,-0.08568
1601.51,-0.08618
1601.52,-0.08596
1601.53,-0.08618
1601.54,-0.08579
1601.55,-0.0862
1601.56,-0.08594
1601.57,-0.08623
1601.58,-0.08584
1601.59,-0.08619
1601.6,-0.08582
1601.61,-0.08633
1601.62,-0.08601
1601.63,-0.0861
1601.64,-0.08616
1601.65,-0.08627
1601.66,-0.08637
1601.67,-0.08569
1601.68,-0.08655
1601.69,-0.08607
1601.7,-0.08656
1601.71,-0.08607
1601.72,-0.08611
1601.73,-0.08657
1601.74,-0.08635
1601.75,-0.08612
1601.76,-0.08615
1601.77,-0.08677
1601.78,-0.08624
1601.79,-0.08648
1601.8,-0.08647
1601.81,-0.08699
1601.82,-0.08664
1601.83,-0.08662
1601.84,-0.08652
1601.85,-0.08697
1601.86,-0.08634
1601.87,-0.08667
1601.88,-0.08681
1601.89,-0.08675
1601.9,-0.08649
1601.91,-0.08684
1601.92,-0.08688
1601.93,-0.08702
1601.94,-0.08732
1601.95,-0.0867
1601.96,-0.08651
1601.97,-0.08661
1601.98,-0.08694
1601.99,-0.08618
1602,-0.08664
1602.01,-0.0868
1602.02,-0.08678
1602.03,-0.08627
1602.04,-0.0872
1602.05,-0.08679
1602.06,-0.08685
1602.07,-0.08678
1602.08,-0.08654
1602.09,-0.0871
1602.1,-0.08683
1602.11,-0.08694
1602.12,-0.08641
1602.13,-0.08715
1602.14,-0.08627
1602.15,-0.08693
1602.16,-0.08703
1602.17,-0.08669
1602.18,-0.08672
1602.19,-0.0869
1602.2,-0.08683
1602.21,-0.08656
1602.22,-0.08683
1602.23,-0.08699
1602.24,-0.08662
1602.25,-0.08734
1602.26,-0.08664
1602.27,-0.08641
1602.28,-0.08698
1602.29,-0.08683
1602.3,-0.08645
1602.31,-0.08716
1602.32,-0.08663
1602.33,-0.0867
1602.34,-0.08697
1602.35,-0.08689
1602.36,-0.0861
1602.37,-0.08685
1602.38,-0.08728
1602.39,-0.08674
1602.4,-0.08661
1602.41,-0.0865
1602.42,-0.08658
1602.43,-0.08649
1602.44,-0.08686
1602.45,-0.08671
1602.46,-0.08645
1602.47,-0.08697
1602.48,-0.08655
1602.49,-0.08637
1602.5,-0.08664
1602.51,-0.08665
1602.52,-0.08671
1602.53,-0.08606
1602.54,-0.0865
1602.55,-0.08689
1602.56,-0.0866
1602.57,-0.08711
1602.58,-0.08678
1602.59,-0.08681
1602.6,-0.08711
1602.61,-0.08648
1602.62,-0.08722
1602.63,-0.08703
1602.64,-0.08676
1602.65,-0.08657
1602.66,-0.08643
1602.67,-0.08684
1602.68,-0.08615
1602.69,-0.08738
1602.7,-0.08647
1602.71,-0.08729
1602.72,-0.08696
1602.73,-0.08663
1602.74,-0.08735
1602.75,-0.08668
1602.76,-0.08687
1602.77,-0.08645
1602.78,-0.08681
1602.79,-0.08665
1602.8,-0.08712
1602.81,-0.08663
1602.82,-0.08715
1602.83,-0.08695
1602.84,-0.08648
1602.85,-0.08697
1602.86,-0.08721
1602.87,-0.08666
1602.88,-0.08716
1602.89,-0.08731
1602.9,-0.08681
1602.91,-0.08689
1602.92,-0.08718
1602.93,-0.08715
1602.94,-0.08666
1602.95,-0.08674
1602.96,-0.08661
1602.97,-0.08799
1602.98,-0.08534
1602.99,-0.08811
1603,-0.08659
1603.01,-0.08679
1603.02,-0.08652
1603.03,-0.08709
1603.04,-0.08713
1603.05,-0.08684
1603.06,-0.08712
1603.07,-0.087
1603.08,-0.08696
1603.09,-0.08681
1603.1,-0.08707
1603.11,-0.08706
1603.12,-0.08689
1603.13,-0.08726
1603.14,-0.08716
1603.15,-0.08718
1603.16,-0.08721
1603.17,-0.08681
1603.18,-0.08713
1603.19,-0.08652
1603.2,-0.08666
1603.21,-0.08755
1603.22,-0.08721
1603.23,-0.08686
1603.24,-0.08682
1603.25,-0.08709
1603.26,-0.08733
1603.27,-0.08651
1603.28,-0.08743
1603.29,-0.08685
1603.3,-0.08744
1603.31,-0.08664
1603.32,-0.08679
1603.33,-0.08716
1603.34,-0.08736
1603.35,-0.08676
1603.36,-0.08732
1603.37,-0.08691
1603.38,-0.08659
1603.39,-0.08709
1603.4,-0.08699
1603.41,-0.08696
1603.42,-0.08719
1603.43,-0.08718
1603.44,-0.08713
1603.45,-0.08761
1603.46,-0.08527
1603.47,-0.08763
1603.48,-0.08724
1603.49,-0.08713
1603.5,-0.08706
1603.51,-0.08705
1603.52,-0.08691
1603.53,-0.08687
1603.54,-0.08642
1603.55,-0.08687
1603.56,-0.08749
1603.57,-0.08677
1603.58,-0.08716
1603.59,-0.08656
1603.6,-0.08714
1603.61,-0.08674
1603.62,-0.0871
1603.63,-0.08706
1603.64,-0.08644
1603.65,-0.08702
1603.66,-0.08689
1603.67,-0.08681
1603.68,-0.087
1603.69,-0.08707
1603.7,-0.08702
1603.71,-0.08721
1603.72,-0.08706
1603.73,-0.08661
1603.74,-0.08724
1603.75,-0.0868
1603.76,-0.08719
1603.77,-0.08668
1603.78,-0.08712
1603.79,-0.08709
1603.8,-0.08711
1603.81,-0.08679
1603.82,-0.08715
1603.83,-0.0866
1603.84,-0.08686
1603.85,-0.08651
1603.86,-0.08654
1603.87,-0.08669
1603.88,-0.08672
1603.89,-0.08677
1603.9,-0.0867
1603.91,-0.08693
1603.92,-0.08656
1603.93,-0.0868
1603.94,-0.08655
1603.95,-0.08726
1603.96,-0.087
1603.97,-0.08691
1603.98,-0.08654
1603.99,-0.08697
1604,-0.08666
1604.01,-0.08708
1604.02,-0.08635
1604.03,-0.0867
1604.04,-0.08696
1604.05,-0.087
1604.06,-0.08692
1604.07,-0.08702
1604.08,-0.08667
1604.09,-0.08638
1604.1,-0.08721
1604.11,-0.08698
1604.12,-0.08648
1604.13,-0.08721
1604.14,-0.08707
1604.15,-0.08687
1604.16,-0.08652
1604.17,-0.08724
1604.18,-0.08674
1604.19,-0.08718
1604.2,-0.08642
1604.21,-0.08669
1604.22,-0.08656
1604.23,-0.08667
1604.24,-0.08676
1604.25,-0.08702
1604.26,-0.08684
1604.27,-0.08703
1604.28,-0.08727
1604.29,-0.08698
1604.3,-0.08745
1604.31,-0.08694
1604.32,-0.08714
1604.33,-0.08699
1604.34,-0.08719
1604.35,-0.08709
1604.36,-0.08742
1604.37,-0.08773
1604.38,-0.08702
1604.39,-0.08739
1604.4,-0.08709
1604.41,-0.08743
1604.42,-0.08731
1604.43,-0.08704
1604.44,-0.08697
1604.45,-0.08686
1604.46,-0.08701
1604.47,-0.08717
1604.48,-0.08721
1604.49,-0.08714
1604.5,-0.08753
1604.51,-0.08688
1604.52,-0.08725
1604.53,-0.08719
1604.54,-0.08727
1604.55,-0.08684
1604.56,-0.08743
1604.57,-0.08662
1604.58,-0.08742
1604.59,-0.08682
1604.6,-0.08737
1604.61,-0.087
1604.62,-0.08775
1604.63,-0.08629
1604.64,-0.08752
1604.65,-0.0865
1604.66,-0.0871
1604.67,-0.08706
1604.68,-0.08742
1604.69,-0.08741
1604.7,-0.08689
1604.71,-0.08753
1604.72,-0.0873
1604.73,-0.08731
1604.74,-0.08716
1604.75,-0.08742
1604.76,-0.08672
1604.77,-0.08747
1604.78,-0.08631
1604.79,-0.08757
1604.8,-0.08759
1604.81,-0.08735
1604.82,-0.08707
1604.83,-0.08726
1604.84,-0.0871
1604.85,-0.08767
1604.86,-0.08728
1604.87,-0.08796
1604.88,-0.08729
1604.89,-0.08735
1604.9,-0.08684
1604.91,-0.0874
1604.92,-0.08761
1604.93,-0.08744
1604.94,-0.08757
1604.95,-0.08733
1604.96,-0.08782
1604.97,-0.08732
1604.98,-0.08733
1604.99,-0.08718
1605,-0.08777
1605.01,-0.08712
1605.02,-0.0878
1605.03,-0.08705
1605.04,-0.08783
1605.05,-0.08782
1605.06,-0.08745
1605.07,-0.08767
1605.08,-0.08726
1605.09,-0.0877
1605.1,-0.0866
1605.11,-0.08791
1605.12,-0.08739
1605.13,-0.08781
1605.14,-0.08734
1605.15,-0.08811
1605.16,-0.08737
1605.17,-0.08785
1605.18,-0.08754
1605.19,-0.08788
1605.2,-0.08717
1605.21,-0.08721
1605.22,-0.08876
1605.23,-0.08696
1605.24,-0.08791
1605.25,-0.08764
1605.26,-0.08752
1605.27,-0.0878
1605.28,-0.08795
1605.29,-0.0871
1605.3,-0.0879
1605.31,-0.08691
1605.32,-0.08751
1605.33,-0.08701
1605.34,-0.08843
1605.35,-0.08677
1605.36,-0.08782
1605.37,-0.08754
1605.38,-0.08785
1605.39,-0.08785
1605.4,-0.08727
1605.41,-0.08791
1605.42,-0.08731
1605.43,-0.08767
1605.44,-0.08692
1605.45,-0.08718
1605.46,-0.08661
1605.47,-0.0888
1605.48,-0.08681
1605.49,-0.08785
1605.5,-0.08759
1605.51,-0.08767
1605.52,-0.08768
1605.53,-0.08766
1605.54,-0.08777
1605.55,-0.08733
1605.56,-0.08759
1605.57,-0.08743
1605.58,-0.08772
1605.59,-0.0875
1605.6,-0.08772
1605.61,-0.0878
1605.62,-0.08866
1605.63,-0.08704
1605.64,-0.08775
1605.65,-0.08743
1605.66,-0.08804
1605.67,-0.08724
1605.68,-0.088
1605.69,-0.08756
1605.7,-0.08783
1605.71,-0.0872
1605.72,-0.08716
1605.73,-0.08771
1605.74,-0.08817
1605.75,-0.08788
1605.76,-0.08784
1605.77,-0.08734
1605.78,-0.08818
1605.79,-0.08711
1605.8,-0.08769
1605.81,-0.08799
1605.82,-0.08778
1605.83,-0.08813
1605.84,-0.0879
1605.85,-0.08773
1605.86,-0.08817
1605.87,-0.08791
1605.88,-0.08778
1605.89,-0.08738
1605.9,-0.08788
1605.91,-0.08745
1605.92,-0.08816
1605.93,-0.08801
1605.94,-0.08835
1605.95,-0.08843
1605.96,-0.08883
1605.97,-0.08715
1605.98,-0.08921
1605.99,-0.08773
1606,-0.08898
1606.01,-0.08882
1606.02,-0.08833
1606.03,-0.08886
1606.04,-0.08893
1606.05,-0.08855
1606.06,-0.08867
1606.07,-0.0887
1606.08,-0.08847
1606.09,-0.0892
1606.1,-0.08846
1606.11,-0.08847
1606.12,-0.08853
1606.13,-0.08882
1606.14,-0.08888
1606.15,-0.08908
1606.16,-0.08892
1606.17,-0.08959
1606.18,-0.08886
1606.19,-0.08945
1606.2,-0.08902
1606.21,-0.08893
1606.22,-0.08899
1606.23,-0.08927
1606.24,-0.08928
1606.25,-0.08861
1606.26,-0.08934
1606.27,-0.08972
1606.28,-0.08949
1606.29,-0.08942
1606.3,-0.08924
1606.31,-0.08908
1606.32,-0.09002
1606.33,-0.0896
1606.34,-0.08935
1606.35,-0.08896
1606.36,-0.08954
1606.37,-0.08917
1606.38,-0.08949
1606.39,-0.08959
1606.4,-0.08858
1606.41,-0.08962
1606.42,-0.08943
1606.43,-0.0894
1606.44,-0.08921
1606.45,-0.08956
1606.46,-0.08945
1606.47,-0.08865
1606.48,-0.08976
1606.49,-0.08929
1606.5,-0.0894
1606.51,-0.08947
1606.52,-0.08959
1606.53,-0.08917
1606.54,-0.08943
1606.55,-0.08972
1606.56,-0.08932
1606.57,-0.08978
1606.58,-0.08953
1606.59,-0.08997
1606.6,-0.08993
1606.61,-0.0899
1606.62,-0.08991
1606.63,-0.08991
1606.64,-0.08842
1606.65,-0.08916
1606.66,-0.08908
1606.67,-0.08972
1606.68,-0.08912
1606.69,-0.08915
1606.7,-0.09027
1606.71,-0.08948
1606.72,-0.08876
1606.73,-0.08987
1606.74,-0.08914
1606.75,-0.08976
1606.76,-0.08951
1606.77,-0.08938
1606.78,-0.08918
1606.79,-0.08938
1606.8,-0.08923
1606.81,-0.08926
1606.82,-0.08949
1606.83,-0.08952
1606.84,-0.08921
1606.85,-0.08963
1606.86,-0.08928
1606.87,-0.08945
1606.88,-0.08903
1606.89,-0.0891
1606.9,-0.08974
1606.91,-0.08874
1606.92,-0.08974
1606.93,-0.08887
1606.94,-0.08986
1606.95,-0.08928
1606.96,-0.08977
1606.97,-0.0894
1606.98,-0.08922
1606.99,-0.0893
1607,-0.08923
1607.01,-0.08927
1607.02,-0.08912
1607.03,-0.08884
1607.04,-0.08905
1607.05,-0.08963
1607.06,-0.08878
1607.07,-0.08982
1607.08,-0.08909
1607.09,-0.08977
1607.1,-0.08958
1607.11,-0.08935
1607.12,-0.08909
1607.13,-0.08933
1607.14,-0.08935
1607.15,-0.08947
1607.16,-0.08961
1607.17,-0.08912
1607.18,-0.09002
1607.19,-0.08913
1607.2,-0.08997
1607.21,-0.08928
1607.22,-0.08975
1607.23,-0.08949
1607.24,-0.08965
1607.25,-0.08969
1607.26,-0.08962
1607.27,-0.08958
1607.28,-0.08942
1607.29,-0.08949
1607.3,-0.08944
1607.31,-0.0893
1607.32,-0.08986
1607.33,-0.08986
1607.34,-0.08907
1607.35,-0.08973
1607.36,-0.08972
1607.37,-0.08999
1607.38,-0.08934
1607.39,-0.08989
1607.4,-0.08993
1607.41,-0.0898
1607.42,-0.09024
1607.43,-0.08981
1607.44,-0.08995
1607.45,-0.08977
1607.46,-0.09006
1607.47,-0.08923
1607.48,-0.09006
1607.49,-0.09033
1607.5,-0.0895
1607.51,-0.09026
1607.52,-0.09002
1607.53,-0.09014
1607.54,-0.09011
1607.55,-0.09037
1607.56,-0.08997
1607.57,-0.08949
1607.58,-0.09049
1607.59,-0.08985
1607.6,-0.09015
1607.61,-0.09009
1607.62,-0.09024
1607.63,-0.08976
1607.64,-0.0906
1607.65,-0.09005
1607.66,-0.09002
1607.67,-0.08966
1607.68,-0.09026
1607.69,-0.09021
1607.7,-0.09016
1607.71,-0.09056
1607.72,-0.09045
1607.73,-0.08967
1607.74,-0.0903
1607.75,-0.09001
1607.76,-0.09074
1607.77,-0.08992
1607.78,-0.08992
1607.79,-0.0903
1607.8,-0.08956
1607.81,-0.0902
1607.82,-0.09018
1607.83,-0.09027
1607.84,-0.08968
1607.85,-0.09009
1607.86,-0.09012
1607.87,-0.09018
1607.88,-0.0905
1607.89,-0.09002
1607.9,-0.08985
1607.91,-0.09019
1607.92,-0.08978
1607.93,-0.08999
1607.94,-0.08986
1607.95,-0.09034
1607.96,-0.0903
1607.97,-0.09017
1607.98,-0.09037
1607.99,-0.08984
1608,-0.09021
1608.01,-0.09023
1608.02,-0.09012
1608.03,-0.08999
1608.04,-0.09021
1608.05,-0.0903
1608.06,-0.08963
1608.07,-0.09022
1608.08,-0.09028
1608.09,-0.08987
1608.1,-0.09016
1608.11,-0.08972
1608.12,-0.09016
1608.13,-0.08995
1608.14,-0.08968
1608.15,-0.08989
1608.16,-0.0901
1608.17,-0.08993
1608.18,-0.09003
1608.19,-0.09034
1608.2,-0.09009
1608.21,-0.09033
1608.22,-0.0899
1608.23,-0.09017
1608.24,-0.0895
1608.25,-0.0905
1608.26,-0.08938
1608.27,-0.08992
1608.28,-0.09021
1608.29,-0.09015
1608.3,-0.08998
1608.31,-0.09047
1608.32,-0.09021
1608.33,-0.09053
1608.34,-0.08981
1608.35,-0.09061
1608.36,-0.09034
1608.37,-0.08992
1608.38,-0.09052
1608.39,-0.08975
1608.4,-0.09031
1608.41,-0.09008
1608.42,-0.09031
1608.43,-0.08986
1608.44,-0.09029
1608.45,-0.09061
1608.46,-0.09001
1608.47,-0.09046
1608.48,-0.09049
1608.49,-0.09023
1608.5,-0.09002
1608.51,-0.0904
1608.52,-0.09018
1608.53,-0.09048
1608.54,-0.09032
1608.55,-0.09066
1608.56,-0.08987
1608.57,-0.09046
1608.58,-0.0903
1608.59,-0.09052
1608.6,-0.09006
1608.61,-0.09079
1608.62,-0.09033
1608.63,-0.09015
1608.64,-0.09067
1608.65,-0.09029
1608.66,-0.09033
1608.67,-0.09089
1608.68,-0.09007
1608.69,-0.08983
1608.7,-0.09021
1608.71,-0.09074
1608.72,-0.09039
1608.73,-0.09004
1608.74,-0.0907
1608.75,-0.0901
1608.76,-0.09109
1608.77,-0.09015
1608.78,-0.09053
1608.79,-0.09079
1608.8,-0.09047
1608.81,-0.09016
1608.82,-0.09085
1608.83,-0.09059
1608.84,-0.09032
1608.85,-0.09073
1608.86,-0.09043
1608.87,-0.09086
1608.88,-0.09038
1608.89,-0.09099
1608.9,-0.0902
1608.91,-0.09031
1608.92,-0.09055
1608.93,-0.09006
1608.94,-0.09033
1608.95,-0.09101
1608.96,-0.0903
1608.97,-0.09078
1608.98,-0.09102
1608.99,-0.09085
1609,-0.09014
1609.01,-0.09057
1609.02,-0.09087
1609.03,-0.09007
1609.04,-0.091
1609.05,-0.0901
1609.06,-0.09055
1609.07,-0.09022
1609.08,-0.09092
1609.09,-0.09031
1609.1,-0.0915
1609.11,-0.09103
1609.12,-0.09095
1609.13,-0.09032
1609.14,-0.09051
1609.15,-0.09046
1609.16,-0.09096
1609.17,-0.09096
1609.18,-0.09065
1609.19,-0.09061
1609.2,-0.0904
1609.21,-0.09121
1609.22,-0.09041
1609.23,-0.09134
1609.24,-0.09041
1609.25,-0.09114
1609.26,-0.0909
1609.27,-0.09087
1609.28,-0.09127
1609.29,-0.09043
1609.3,-0.09123
1609.31,-0.09039
1609.32,-0.09113
1609.33,-0.0912
1609.34,-0.09132
1609.35,-0.09038
1609.36,-0.09133
1609.37,-0.09082
1609.38,-0.09089
1609.39,-0.09077
1609.4,-0.09153
1609.41,-0.09124
1609.42,-0.09131
1609.43,-0.09101
1609.44,-0.09055
1609.45,-0.09152
1609.46,-0.09089
1609.47,-0.09148
1609.48,-0.09076
1609.49,-0.09135
1609.5,-0.0911
1609.51,-0.09105
1609.52,-0.09101
1609.53,-0.09068
1609.54,-0.09126
1609.55,-0.09111
1609.56,-0.0913
1609.57,-0.09098
1609.58,-0.09116
1609.59,-0.09145
1609.6,-0.0911
1609.61,-0.0907
1609.62,-0.09121
1609.63,-0.0915
1609.64,-0.09104
1609.65,-0.09159
1609.66,-0.09051
1609.67,-0.09068
1609.68,-0.09161
1609.69,-0.09132
1609.7,-0.09132
1609.71,-0.09128
1609.72,-0.09132
1609.73,-0.09121
1609.74,-0.09111
1609.75,-0.09142
1609.76,-0.09146
1609.77,-0.09153
1609.78,-0.09108
1609.79,-0.0913
1609.8,-0.09092
1609.81,-0.09175
1609.82,-0.09132
1609.83,-0.09163
1609.84,-0.09114
1609.85,-0.09143
1609.86,-0.09138
1609.87,-0.09127
1609.88,-0.09116
1609.89,-0.09158
1609.9,-0.09174
1609.91,-0.09094
1609.92,-0.09107
1609.93,-0.0912
1609.94,-0.09205
1609.95,-0.09135
1609.96,-0.09073
1609.97,-0.09246
1609.98,-0.09118
1609.99,-0.09214
1610,-0.09064
1610.01,-0.0918
1610.02,-0.09135
1610.03,-0.09143
1610.04,-0.09153
1610.05,-0.09138
1610.06,-0.09159
1610.07,-0.09123
1610.08,-0.09124
1610.09,-0.09176
1610.1,-0.09154
1610.11,-0.09155
1610.12,-0.09157
1610.13,-0.09138
1610.14,-0.09142
1610.15,-0.09155
1610.16,-0.09143
1610.17,-0.09157
1610.18,-0.09149
1610.19,-0.09193
1610.2,-0.09214
1610.21,-0.09143
1610.22,-0.09187
1610.23,-0.09156
1610.24,-0.09198
1610.25,-0.09125
1610.26,-0.09167
1610.27,-0.0917
1610.28,-0.09237
1610.29,-0.09181
1610.3,-0.09185
1610.31,-0.09176
1610.32,-0.09245
1610.33,-0.092
1610.34,-0.09221
1610.35,-0.09177
1610.36,-0.09195
1610.37,-0.0921
1610.38,-0.09205
1610.39,-0.09188
1610.4,-0.09205
1610.41,-0.09217
1610.42,-0.09226
1610.43,-0.09248
1610.44,-0.0921
1610.45,-0.09228
1610.46,-0.09227
1610.47,-0.09225
1610.48,-0.09191
1610.49,-0.09269
1610.5,-0.09244
1610.51,-0.09341
1610.52,-0.0926
1610.53,-0.09231
1610.54,-0.09209
1610.55,-0.09252
1610.56,-0.09283
1610.57,-0.09263
1610.58,-0.09264
1610.59,-0.0925
1610.6,-0.0924
1610.61,-0.0926
1610.62,-0.09213
1610.63,-0.09266
1610.64,-0.09269
1610.65,-0.09294
1610.66,-0.09279
1610.67,-0.09261
1610.68,-0.09251
1610.69,-0.09269
1610.7,-0.09209
1610.71,-0.09294
1610.72,-0.09237
1610.73,-0.0922
1610.74,-0.09252
1610.75,-0.09222
1610.76,-0.09263
1610.77,-0.093
1610.78,-0.09264
1610.79,-0.09235
1610.8,-0.09245
1610.81,-0.0929
1610.82,-0.0924
1610.83,-0.09244
1610.84,-0.09273
1610.85,-0.09227
1610.86,-0.0929
1610.87,-0.09235
1610.88,-0.09272
1610.89,-0.09301
1610.9,-0.09271
1610.91,-0.09245
1610.92,-0.09291
1610.93,-0.09231
1610.94,-0.09277
1610.95,-0.0928
1610.96,-0.09292
1610.97,-0.09212
1610.98,-0.09242
1610.99,-0.09284
1611,-0.09246
1611.01,-0.09256
1611.02,-0.09231
1611.03,-0.0925
1611.04,-0.09236
1611.05,-0.09253
1611.06,-0.09171
1611.07,-0.09306
1611.08,-0.09224
1611.09,-0.09289
1611.1,-0.09291
1611.11,-0.0926
1611.12,-0.09224
1611.13,-0.09244
1611.14,-0.09226
1611.15,-0.09256
1611.16,-0.09268
1611.17,-0.09267
1611.18,-0.09278
1611.19,-0.09212
1611.2,-0.09282
1611.21,-0.09267
1611.22,-0.09292
1611.23,-0.09234
1611.24,-0.09258
1611.25,-0.09261
1611.26,-0.0924
1611.27,-0.09215
1611.28,-0.0928
1611.29,-0.09193
1611.3,-0.09247
1611.31,-0.09283
1611.32,-0.09194
1611.33,-0.09322
1611.34,-0.0924
1611.35,-0.09265
1611.36,-0.09283
1611.37,-0.09264
1611.38,-0.09228
1611.39,-0.09251
1611.4,-0.09262
1611.41,-0.09285
1611.42,-0.09243
1611.43,-0.09264
1611.44,-0.0932
1611.45,-0.09242
1611.46,-0.09294
1611.47,-0.09257
1611.48,-0.0924
1611.49,-0.09264
1611.5,-0.09287
1611.51,-0.09251
1611.52,-0.0929
1611.53,-0.09293
1611.54,-0.09252
1611.55,-0.09326
1611.56,-0.09275
1611.57,-0.09304
1611.58,-0.09273
1611.59,-0.09292
1611.6,-0.09288
1611.61,-0.09341
1611.62,-0.09236
1611.63,-0.09306
1611.64,-0.09296
1611.65,-0.0929
1611.66,-0.0929
1611.67,-0.09275
1611.68,-0.09335
1611.69,-0.0925
1611.7,-0.09267
1611.71,-0.09285
1611.72,-0.09278
1611.73,-0.09235
1611.74,-0.09307
1611.75,-0.0921
1611.76,-0.09333
1611.77,-0.09316
1611.78,-0.09331
1611.79,-0.09329
1611.8,-0.0935
1611.81,-0.09214
1611.82,-0.09319
1611.83,-0.09238
1611.84,-0.09294
1611.85,-0.0928
1611.86,-0.09279
1611.87,-0.09327
1611.88,-0.09317
1611.89,-0.09292
1611.9,-0.09287
1611.91,-0.09372
1611.92,-0.09263
1611.93,-0.09319
1611.94,-0.09295
1611.95,-0.09311
1611.96,-0.09315
1611.97,-0.0927
1611.98,-0.09317
1611.99,-0.09288
1612,-0.09334
1612.01,-0.0929
1612.02,-0.09321
1612.03,-0.09261
1612.04,-0.09312
1612.05,-0.09307
1612.06,-0.09269
1612.07,-0.09281
1612.08,-0.09243
1612.09,-0.09328
1612.1,-0.09345
1612.11,-0.09315
1612.12,-0.09289
1612.13,-0.09311
1612.14,-0.09304
1612.15,-0.09282
1612.16,-0.09256
1612.17,-0.09296
1612.18,-0.09215
1612.19,-0.09352
1612.2,-0.09238
1612.21,-0.0928
1612.22,-0.09313
1612.23,-0.09335
1612.24,-0.09305
1612.25,-0.09277
1612.26,-0.09299
1612.27,-0.09248
1612.28,-0.09252
1612.29,-0.09312
1612.3,-0.09248
1612.31,-0.09305
1612.32,-0.09289
1612.33,-0.09267
1612.34,-0.09277
1612.35,-0.09327
1612.36,-0.09255
1612.37,-0.09286
1612.38,-0.09296
1612.39,-0.09275
1612.4,-0.09249
1612.41,-0.09299
1612.42,-0.09316
1612.43,-0.09263
1612.44,-0.09307
1612.45,-0.09279
1612.46,-0.09238
1612.47,-0.09249
1612.48,-0.09289
1612.49,-0.09229
1612.5,-0.09257
1612.51,-0.0924
1612.52,-0.09302
1612.53,-0.09257
1612.54,-0.09258
1612.55,-0.09272
1612.56,-0.0932
1612.57,-0.09303
1612.58,-0.09245
1612.59,-0.09239
1612.6,-0.09297
1612.61,-0.09272
1612.62,-0.0921
1612.63,-0.09285
1612.64,-0.09255
1612.65,-0.09233
1612.66,-0.09284
1612.67,-0.09305
1612.68,-0.09279
1612.69,-0.09313
1612.7,-0.09259
1612.71,-0.09295
1612.72,-0.09289
1612.73,-0.09303
1612.74,-0.0924
1612.75,-0.09302
1612.76,-0.09323
1612.77,-0.09203
1612.78,-0.09335
1612.79,-0.09266
1612.8,-0.09317
1612.81,-0.09259
1612.82,-0.09276
1612.83,-0.09289
1612.84,-0.09312
1612.85,-0.0926
1612.86,-0.09314
1612.87,-0.09282
1612.88,-0.09308
1612.89,-0.09318
1612.9,-0.09282
1612.91,-0.09305
1612.92,-0.09308
1612.93,-0.09317
1612.94,-0.09259
1612.95,-0.09278
1612.96,-0.09341
1612.97,-0.09284
1612.98,-0.09314
1612.99,-0.09288
1613,-0.09353
1613.01,-0.09347
1613.02,-0.09367
1613.03,-0.09307
1613.04,-0.09325
1613.05,-0.09284
1613.06,-0.09315
1613.07,-0.09276
1613.08,-0.09303
1613.09,-0.09272
1613.1,-0.0933
1613.11,-0.09321
1613.12,-0.09318
1613.13,-0.09331
1613.14,-0.09287
1613.15,-0.09297
1613.16,-0.0933
1613.17,-0.09301
1613.18,-0.09303
1613.19,-0.09327
1613.2,-0.09312
1613.21,-0.09229
1613.22,-0.09498
1613.23,-0.09258
1613.24,-0.09337
1613.25,-0.09331
1613.26,-0.09304
1613.27,-0.09298
1613.28,-0.09326
1613.29,-0.09301
1613.3,-0.09291
1613.31,-0.09303
1613.32,-0.09293
1613.33,-0.093
1613.34,-0.09359
1613.35,-0.09313
1613.36,-0.09314
1613.37,-0.09331
1613.38,-0.09267
1613.39,-0.09322
1613.4,-0.09313
1613.41,-0.09325
1613.42,-0.09325
1613.43,-0.09368
1613.44,-0.09323
1613.45,-0.094
1613.46,-0.09335
1613.47,-0.09335
1613.48,-0.0937
1613.49,-0.093
1613.5,-0.09359
1613.51,-0.09262
1613.52,-0.09326
1613.53,-0.09313
1613.54,-0.09397
1613.55,-0.09319
1613.56,-0.09347
1613.57,-0.09327
1613.58,-0.09364
1613.59,-0.09302
1613.6,-0.09322
1613.61,-0.09308
1613.62,-0.09336
1613.63,-0.09299
1613.64,-0.09308
1613.65,-0.09376
1613.66,-0.09278
1613.67,-0.09404
1613.68,-0.09327
1613.69,-0.09287
1613.7,-0.09378
1613.71,-0.09288
1613.72,-0.09287
1613.73,-0.09379
1613.74,-0.09319
1613.75,-0.0932
1613.76,-0.09313
1613.77,-0.09328
1613.78,-0.09363
1613.79,-0.09336
1613.8,-0.09339
1613.81,-0.09377
1613.82,-0.09283
1613.83,-0.09344
1613.84,-0.0933
1613.85,-0.09325
1613.86,-0.09307
1613.87,-0.09354
1613.88,-0.09281
1613.89,-0.09382
1613.9,-0.09358
1613.91,-0.09364
1613.92,-0.09324
1613.93,-0.09358
1613.94,-0.09286
1613.95,-0.09308
1613.96,-0.09316
1613.97,-0.09378
1613.98,-0.09333
1613.99,-0.09291
1614,-0.09369
1614.01,-0.09357
1614.02,-0.0933
1614.03,-0.09366
1614.04,-0.0932
1614.05,-0.09306
1614.06,-0.09332
1614.07,-0.09319
1614.08,-0.09336
1614.09,-0.09347
1614.1,-0.0933
1614.11,-0.09312
1614.12,-0.09366
1614.13,-0.09394
1614.14,-0.09348
1614.15,-0.09352
1614.16,-0.09358
1614.17,-0.09315
1614.18,-0.09332
1614.19,-0.09349
1614.2,-0.09328
1614.21,-0.09337
1614.22,-0.09359
1614.23,-0.09329
1614.24,-0.09367
1614.25,-0.09369
1614.26,-0.09288
1614.27,-0.0935
1614.28,-0.09358
1614.29,-0.09325
1614.3,-0.09325
1614.31,-0.09362
1614.32,-0.0941
1614.33,-0.0933
1614.34,-0.09369
1614.35,-0.09384
1614.36,-0.09354
1614.37,-0.09367
1614.38,-0.09356
1614.39,-0.09363
1614.4,-0.09378
1614.41,-0.0938
1614.42,-0.09376
1614.43,-0.09377
1614.44,-0.09377
1614.45,-0.0937
1614.46,-0.09357
1614.47,-0.09374
1614.48,-0.09395
1614.49,-0.09381
1614.5,-0.09333
1614.51,-0.09353
1614.52,-0.09405
1614.53,-0.09384
1614.54,-0.0935
1614.55,-0.09355
1614.56,-0.09429
1614.57,-0.09413
1614.58,-0.09409
1614.59,-0.09438
1614.6,-0.09399
1614.61,-0.09372
1614.62,-0.09364
1614.63,-0.09399
1614.64,-0.09352
1614.65,-0.0944
1614.66,-0.09406
1614.67,-0.09422
1614.68,-0.09413
1614.69,-0.09382
1614.7,-0.0943
1614.71,-0.09374
1614.72,-0.09444
1614.73,-0.094
1614.74,-0.09418
1614.75,-0.09388
1614.76,-0.09369
1614.77,-0.09446
1614.78,-0.09419
1614.79,-0.09445
1614.8,-0.09442
1614.81,-0.09379
1614.82,-0.09419
1614.83,-0.09418
1614.84,-0.09432
1614.85,-0.09424
1614.86,-0.09378
1614.87,-0.09436
1614.88,-0.0942
1614.89,-0.09426
1614.9,-0.09466
1614.91,-0.09424
1614.92,-0.09446
1614.93,-0.09442
1614.94,-0.0938
1614.95,-0.09402
1614.96,-0.09407
1614.97,-0.09492
1614.98,-0.0946
1614.99,-0.09444
1615,-0.09487
1615.01,-0.09475
1615.02,-0.09492
1615.03,-0.09472
1615.04,-0.09457
1615.05,-0.09447
1615.06,-0.09402
1615.07,-0.09446
1615.08,-0.09501
1615.09,-0.09452
1615.1,-0.09498
1615.11,-0.09418
1615.12,-0.0952
1615.13,-0.09488
1615.14,-0.0947
1615.15,-0.09506
1615.16,-0.09522
1615.17,-0.09445
1615.18,-0.09492
1615.19,-0.09489
1615.2,-0.09469
1615.21,-0.09471
1615.22,-0.09539
1615.23,-0.09518
1615.24,-0.09495
1615.25,-0.09534
1615.26,-0.0946
1615.27,-0.09462
1615.28,-0.09461
1615.29,-0.09473
1615.3,-0.09473
1615.31,-0.09498
1615.32,-0.09469
1615.33,-0.09536
1615.34,-0.09508
1615.35,-0.0955
1615.36,-0.09453
1615.37,-0.0956
1615.38,-0.09441
1615.39,-0.09497
1615.4,-0.09472
1615.41,-0.09495
1615.42,-0.09447
1615.43,-0.09503
1615.44,-0.09512
1615.45,-0.09492
1615.46,-0.09535
1615.47,-0.09527
1615.48,-0.09522
1615.49,-0.09453
1615.5,-0.09452
1615.51,-0.09432
1615.52,-0.09489
1615.53,-0.09508
1615.54,-0.09484
1615.55,-0.09498
1615.56,-0.09462
1615.57,-0.09545
1615.58,-0.09495
1615.59,-0.09513
1615.6,-0.09536
1615.61,-0.09489
1615.62,-0.09471
1615.63,-0.09521
1615.64,-0.0949
1615.65,-0.09488
1615.66,-0.09533
1615.67,-0.09488
1615.68,-0.09507
1615.69,-0.09481
1615.7,-0.09521
1615.71,-0.09446
1615.72,-0.09507
1615.73,-0.09478
1615.74,-0.09508
1615.75,-0.09477
1615.76,-0.09483
1615.77,-0.09473
1615.78,-0.09496
1615.79,-0.09521
1615.8,-0.09511
1615.81,-0.09525
1615.82,-0.09499
1615.83,-0.09535
1615.84,-0.09485
1615.85,-0.09464
1615.86,-0.09525
1615.87,-0.09495
1615.88,-0.09505
1615.89,-0.0954
1615.9,-0.09508
1615.91,-0.09514
1615.92,-0.09555
1615.93,-0.09515
1615.94,-0.0949
1615.95,-0.09524
1615.96,-0.09501
1615.97,-0.09499
1615.98,-0.09564
1615.99,-0.09492
1616,-0.09514
1616.01,-0.09551
1616.02,-0.09562
1616.03,-0.09512
1616.04,-0.09555
1616.05,-0.09551
1616.06,-0.09506
1616.07,-0.09576
1616.08,-0.09544
1616.09,-0.09516
1616.1,-0.0958
1616.11,-0.09563
1616.12,-0.09558
1616.13,-0.09612
1616.14,-0.09572
1616.15,-0.09552
1616.16,-0.09575
1616.17,-0.09516
1616.18,-0.09551
1616.19,-0.09597
1616.2,-0.0958
1616.21,-0.09579
1616.22,-0.09557
1616.23,-0.0962
1616.24,-0.09619
1616.25,-0.09649
1616.26,-0.09532
1616.27,-0.09607
1616.28,-0.09609
1616.29,-0.09583
1616.3,-0.09598
1616.31,-0.09598
1616.32,-0.09593
1616.33,-0.09611
1616.34,-0.09621
1616.35,-0.09607
1616.36,-0.09648
1616.37,-0.09609
1616.38,-0.09668
1616.39,-0.09573
1616.4,-0.09623
1616.41,-0.09602
1616.42,-0.09619
1616.43,-0.09611
1616.44,-0.09639
1616.45,-0.09641
1616.46,-0.09647
1616.47,-0.09647
1616.48,-0.09653
1616.49,-0.09591
1616.5,-0.09668
1616.51,-0.09643
1616.52,-0.096
1616.53,-0.09602
1616.54,-0.09644
1616.55,-0.09607
1616.56,-0.09638
1616.57,-0.09649
1616.58,-0.09682
1616.59,-0.09608
1616.6,-0.09679
1616.61,-0.09624
1616.62,-0.09611
1616.63,-0.09622
1616.64,-0.0968
1616.65,-0.09583
1616.66,-0.09646
1616.67,-0.09651
1616.68,-0.09645
1616.69,-0.09619
1616.7,-0.09655
1616.71,-0.09655
1616.72,-0.09578
1616.73,-0.09613
1616.74,-0.09594
1616.75,-0.09637
1616.76,-0.09635
1616.77,-0.09618
1616.78,-0.09584
1616.79,-0.09628
1616.8,-0.09707
1616.81,-0.0961
1616.82,-0.09715
1616.83,-0.09591
1616.84,-0.09634
1616.85,-0.09641
1616.86,-0.09624
1616.87,-0.09597
1616.88,-0.09616
1616.89,-0.09609
1616.9,-0.09647
1616.91,-0.09624
1616.92,-0.09639
1616.93,-0.09656
1616.94,-0.09647
1616.95,-0.09628
1616.96,-0.09663
1616.97,-0.09581
1616.98,-0.09628
1616.99,-0.09635
1617,-0.09627
1617.01,-0.09635
1617.02,-0.09662
1617.03,-0.09634
1617.04,-0.09655
1617.05,-0.09596
1617.06,-0.09655
1617.07,-0.09567
1617.08,-0.09575
1617.09,-0.09609
1617.1,-0.09652
1617.11,-0.09651
1617.12,-0.09666
1617.13,-0.09615
1617.14,-0.09676
1617.15,-0.09669
1617.16,-0.09637
1617.17,-0.09602
1617.18,-0.09611
1617.19,-0.09622
1617.2,-0.09649
1617.21,-0.09666
1617.22,-0.09593
1617.23,-0.0962
1617.24,-0.09677
1617.25,-0.09642
1617.26,-0.09643
1617.27,-0.09648
1617.28,-0.09709
1617.29,-0.09607
1617.3,-0.09622
1617.31,-0.09674
1617.32,-0.09651
1617.33,-0.09673
1617.34,-0.09702
1617.35,-0.09681
1617.36,-0.09698
1617.37,-0.09699
1617.38,-0.09713
1617.39,-0.09695
1617.4,-0.09676
1617.41,-0.09684
1617.42,-0.09648
1617.43,-0.09726
1617.44,-0.09684
1617.45,-0.09663
1617.46,-0.0969
1617.47,-0.09741
1617.48,-0.0969
1617.49,-0.09731
1617.5,-0.09696
1617.51,-0.09694
1617.52,-0.0968
1617.53,-0.09706
1617.54,-0.09696
1617.55,-0.0974
1617.56,-0.09661
1617.57,-0.09774
1617.58,-0.09744
1617.59,-0.09736
1617.6,-0.09715
1617.61,-0.09725
1617.62,-0.09733
1617.63,-0.09723
1617.64,-0.09707
1617.65,-0.09711
1617.66,-0.09705
1617.67,-0.09684
1617.68,-0.09761
1617.69,-0.09696
1617.7,-0.0974
1617.71,-0.09739
1617.72,-0.09753
1617.73,-0.0973
1617.74,-0.09693
1617.75,-0.09739
1617.76,-0.09679
1617.77,-0.09767
1617.78,-0.09703
1617.79,-0.0971
1617.8,-0.09719
1617.81,-0.09768
1617.82,-0.09733
1617.83,-0.09756
1617.84,-0.0968
1617.85,-0.09704
1617.86,-0.09726
1617.87,-0.09721
1617.88,-0.09745
1617.89,-0.09666
1617.9,-0.09739
1617.91,-0.09709
1617.92,-0.09764
1617.93,-0.09676
1617.94,-0.09717
1617.95,-0.0969
1617.96,-0.09663
1617.97,-0.09705
1617.98,-0.09686
1617.99,-0.09717
1618,-0.09702
1618.01,-0.0973
1618.02,-0.09707
1618.03,-0.09716
1618.04,-0.09762
1618.05,-0.09688
1618.06,-0.09737
1618.07,-0.09684
1618.08,-0.09692
1618.09,-0.09746
1618.1,-0.09684
1618.11,-0.0968
1618.12,-0.09724
1618.13,-0.09735
1618.14,-0.09729
1618.15,-0.09759
1618.16,-0.09715
1618.17,-0.0971
1618.18,-0.09736
1618.19,-0.09663
1618.2,-0.09732
1618.21,-0.09732
1618.22,-0.09674
1618.23,-0.09758
1618.24,-0.0977
1618.25,-0.09765
1618.26,-0.09724
1618.27,-0.09764
1618.28,-0.09743
1618.29,-0.0975
1618.3,-0.09697
1618.31,-0.09721
1618.32,-0.0976
1618.33,-0.09747
1618.34,-0.09752
1618.35,-0.09736
1618.36,-0.09773
1618.37,-0.09795
1618.38,-0.09774
1618.39,-0.0976
1618.4,-0.09764
1618.41,-0.09711
1618.42,-0.0973
1618.43,-0.0976
1618.44,-0.09755
1618.45,-0.09758
1618.46,-0.0971
1618.47,-0.09771
1618.48,-0.09796
1618.49,-0.09753
1618.5,-0.09771
1618.51,-0.09754
1618.52,-0.09741
1618.53,-0.09717
1618.54,-0.09753
1618.55,-0.09757
1618.56,-0.09779
1618.57,-0.09818
1618.58,-0.0976
1618.59,-0.09808
1618.6,-0.09804
1618.61,-0.09768
1618.62,-0.098
1618.63,-0.09765
1618.64,-0.0976
1618.65,-0.09768
1618.66,-0.09796
1618.67,-0.09772
1618.68,-0.09763
1618.69,-0.09822
1618.7,-0.09848
1618.71,-0.09765
1618.72,-0.09835
1618.73,-0.09828
1618.74,-0.09787
1618.75,-0.09772
1618.76,-0.09838
1618.77,-0.09768
1618.78,-0.09841
1618.79,-0.09809
1618.8,-0.09829
1618.81,-0.09873
1618.82,-0.09819
1618.83,-0.09853
1618.84,-0.09792
1618.85,-0.09818
1618.86,-0.09781
1618.87,-0.09811
1618.88,-0.0979
1618.89,-0.09817
1618.9,-0.09812
1618.91,-0.09854
1618.92,-0.09789
1618.93,-0.09858
1618.94,-0.09805
1618.95,-0.09812
1618.96,-0.09803
1618.97,-0.09817
1618.98,-0.09824
1618.99,-0.09798
1619,-0.09842
1619.01,-0.09776
1619.02,-0.0982
1619.03,-0.09807
1619.04,-0.09839
1619.05,-0.09799
1619.06,-0.09804
1619.07,-0.09799
1619.08,-0.09804
1619.09,-0.09775
1619.1,-0.09774
1619.11,-0.09839
1619.12,-0.09795
1619.13,-0.0981
1619.14,-0.09853
1619.15,-0.09848
1619.16,-0.0981
1619.17,-0.09789
1619.18,-0.0982
1619.19,-0.09793
1619.2,-0.09837
1619.21,-0.0978
1619.22,-0.09826
1619.23,-0.09844
1619.24,-0.0984
1619.25,-0.09851
1619.26,-0.09811
1619.27,-0.09846
1619.28,-0.09852
1619.29,-0.09789
1619.3,-0.09802
1619.31,-0.09796
1619.32,-0.09827
1619.33,-0.09867
1619.34,-0.09825
1619.35,-0.09803
1619.36,-0.0983
1619.37,-0.09813
1619.38,-0.09784
1619.39,-0.09889
1619.4,-0.09772
1619.41,-0.09829
1619.42,-0.09857
1619.43,-0.09778
1619.44,-0.09862
1619.45,-0.09838
1619.46,-0.09812
1619.47,-0.09854
1619.48,-0.09884
1619.49,-0.09822
1619.5,-0.09883
1619.51,-0.09868
1619.52,-0.09801
1619.53,-0.0988
1619.54,-0.09823
1619.55,-0.09884
1619.56,-0.09791
1619.57,-0.09895
1619.58,-0.09823
1619.59,-0.09886
1619.6,-0.09844
1619.61,-0.09857
1619.62,-0.09898
1619.63,-0.09849
1619.64,-0.09854
1619.65,-0.09853
1619.66,-0.09858
1619.67,-0.09858
1619.68,-0.09893
1619.69,-0.09813
1619.7,-0.09903
1619.71,-0.0994
1619.72,-0.09892
1619.73,-0.09883
1619.74,-0.09915
1619.75,-0.09856
1619.76,-0.09867
1619.77,-0.09892
1619.78,-0.09858
1619.79,-0.09879
1619.8,-0.09868
1619.81,-0.09903
1619.82,-0.09902
1619.83,-0.0994
1619.84,-0.09892
1619.85,-0.09844
1619.86,-0.09915
1619.87,-0.09901
1619.88,-0.09883
1619.89,-0.09858
1619.9,-0.09918
1619.91,-0.09856
1619.92,-0.09966
1619.93,-0.0993
1619.94,-0.09932
1619.95,-0.0993
1619.96,-0.09913
1619.97,-0.099
1619.98,-0.09885
1619.99,-0.09946
1620,-0.09918
1620.01,-0.09947
1620.02,-0.09951
1620.03,-0.09957
1620.04,-0.09943
1620.05,-0.09985
1620.06,-0.09977
1620.07,-0.09899
1620.08,-0.09951
1620.09,-0.09883
1620.1,-0.10008
1620.11,-0.09932
1620.12,-0.09961
1620.13,-0.09935
1620.14,-0.09969
1620.15,-0.09924
1620.16,-0.10012
1620.17,-0.09944
1620.18,-0.09981
1620.19,-0.09935
1620.2,-0.09923
1620.21,-0.09932
1620.22,-0.09961
1620.23,-0.09922
1620.24,-0.09968
1620.25,-0.09984
1620.26,-0.10048
1620.27,-0.10071
1620.28,-0.09949
1620.29,-0.09949
1620.3,-0.09961
1620.31,-0.09976
1620.32,-0.09978
1620.33,-0.09969
1620.34,-0.09959
1620.35,-0.09968
1620.36,-0.09972
1620.37,-0.09989
1620.38,-0.10011
1620.39,-0.10004
1620.4,-0.10045
1620.41,-0.10023
1620.42,-0.09998
1620.43,-0.09997
1620.44,-0.10022
1620.45,-0.10039
1620.46,-0.10078
1620.47,-0.10045
1620.48,-0.10058
1620.49,-0.10063
1620.5,-0.10089
1620.51,-0.10094
1620.52,-0.10087
1620.53,-0.10073
1620.54,-0.10027
1620.55,-0.10067
1620.56,-0.10063
1620.57,-0.10093
1620.58,-0.10086
1620.59,-0.10087
1620.6,-0.10094
1620.61,-0.10107
1620.62,-0.10098
1620.63,-0.10067
1620.64,-0.10092
1620.65,-0.10075
1620.66,-0.10081
1620.67,-0.10038
1620.68,-0.10092
1620.69,-0.10076
1620.7,-0.1003
1620.71,-0.10073
1620.72,-0.10132
1620.73,-0.1012
1620.74,-0.10113
1620.75,-0.10065
1620.76,-0.10045
1620.77,-0.10061
1620.78,-0.10116
1620.79,-0.10082
1620.8,-0.1011
1620.81,-0.10069
1620.82,-0.10054
1620.83,-0.10135
1620.84,-0.10138
1620.85,-0.10081
1620.86,-0.10075
1620.87,-0.10044
1620.88,-0.10054
1620.89,-0.10055
1620.9,-0.10087
1620.91,-0.10083
1620.92,-0.10134
1620.93,-0.10107
1620.94,-0.10114
1620.95,-0.10089
1620.96,-0.10118
1620.97,-0.10087
1620.98,-0.10057
1620.99,-0.1006
1621,-0.10089
1621.01,-0.10127
1621.02,-0.10038
1621.03,-0.10102
1621.04,-0.10016
1621.05,-0.10109
1621.06,-0.10092
1621.07,-0.10067
1621.08,-0.10102
1621.09,-0.10005
1621.1,-0.10105
1621.11,-0.10045
1621.12,-0.10097
1621.13,-0.10034
1621.14,-0.10116
1621.15,-0.10107
1621.16,-0.10093
1621.17,-0.10128
1621.18,-0.10074
1621.19,-0.10159
1621.2,-0.10038
1621.21,-0.10122
1621.22,-0.10048
1621.23,-0.10087
1621.24,-0.09986
1621.25,-0.09986
1621.26,-0.10082
1621.27,-0.10091
1621.28,-0.10127
1621.29,-0.10032
1621.3,-0.10127
1621.31,-0.10022
1621.32,-0.10096
1621.33,-0.10014
1621.34,-0.10089
1621.35,-0.10045
1621.36,-0.10092
1621.37,-0.101
1621.38,-0.1005
1621.39,-0.10103
1621.4,-0.10039
1621.41,-0.10097
1621.42,-0.10061
1621.43,-0.10098
1621.44,-0.1003
1621.45,-0.10094
1621.46,-0.10042
1621.47,-0.10087
1621.48,-0.1007
1621.49,-0.10041
1621.5,-0.1019
1621.51,-0.10087
1621.52,-0.10054
1621.53,-0.10019
1621.54,-0.10053
1621.55,-0.10093
1621.56,-0.10103
1621.57,-0.10082
1621.58,-0.10056
1621.59,-0.10078
1621.6,-0.10063
1621.61,-0.10149
1621.62,-0.10111
1621.63,-0.10125
1621.64,-0.10095
1621.65,-0.10119
1621.66,-0.10084
1621.67,-0.10063
1621.68,-0.10115
1621.69,-0.10084
1621.7,-0.10138
1621.71,-0.10066
1621.72,-0.10103
1621.73,-0.10122
1621.74,-0.10136
1621.75,-0.10134
1621.76,-0.10124
1621.77,-0.10141
1621.78,-0.10049
1621.79,-0.10184
1621.8,-0.10097
1621.81,-0.10129
1621.82,-0.10131
1621.83,-0.10174
1621.84,-0.10152
1621.85,-0.10144
1621.86,-0.10163
1621.87,-0.10123
1621.88,-0.10128
1621.89,-0.10135
1621.9,-0.1016
1621.91,-0.10125
1621.92,-0.10149
1621.93,-0.10181
1621.94,-0.10119
1621.95,-0.10203
1621.96,-0.10167
1621.97,-0.10135
1621.98,-0.1014
1621.99,-0.10151
1622,-0.10125
1622.01,-0.1018
1622.02,-0.10145
1622.03,-0.10206
1622.04,-0.10113
1622.05,-0.10193
1622.06,-0.10194
1622.07,-0.10171
1622.08,-0.10213
1622.09,-0.10176
1622.1,-0.10158
1622.11,-0.10222
1622.12,-0.10136
1622.13,-0.10232
1622.14,-0.10254
1622.15,-0.1011
1622.16,-0.10178
1622.17,-0.10189
1622.18,-0.10188
1622.19,-0.10201
1622.2,-0.10195
1622.21,-0.10146
1622.22,-0.10149
1622.23,-0.10162
1622.24,-0.10203
1622.25,-0.10139
1622.26,-0.1017
1622.27,-0.102
1622.28,-0.10148
1622.29,-0.10248
1622.3,-0.10172
1622.31,-0.1016
1622.32,-0.10132
1622.33,-0.10156
1622.34,-0.10155
1622.35,-0.10182
1622.36,-0.10156
1622.37,-0.1018
1622.38,-0.10142
1622.39,-0.10147
1622.4,-0.10182
1622.41,-0.10137
1622.42,-0.10175
1622.43,-0.10105
1622.44,-0.10148
1622.45,-0.10111
1622.46,-0.10106
1622.47,-0.10125
1622.48,-0.10119
1622.49,-0.10162
1622.5,-0.10112
1622.51,-0.10152
1622.52,-0.10137
1622.53,-0.10133
1622.54,-0.10074
1622.55,-0.10168
1622.56,-0.10117
1622.57,-0.10118
1622.58,-0.10115
1622.59,-0.1015
1622.6,-0.10114
1622.61,-0.10108
1622.62,-0.1017
1622.63,-0.10137
1622.64,-0.10158
1622.65,-0.10109
1622.66,-0.10111
1622.67,-0.10064
1622.68,-0.10084
1622.69,-0.10161
1622.7,-0.10094
1622.71,-0.10162
1622.72,-0.1011
1622.73,-0.10141
1622.74,-0.10132
1622.75,-0.10038
1622.76,-0.10095
1622.77,-0.1012
1622.78,-0.101
1622.79,-0.10119
1622.8,-0.10179
1622.81,-0.10097
1622.82,-0.10131
1622.83,-0.10119
1622.84,-0.10147
1622.85,-0.1015
1622.86,-0.10078
1622.87,-0.10152
1622.88,-0.10135
1622.89,-0.10113
1622.9,-0.1014
1622.91,-0.10172
1622.92,-0.1022
1622.93,-0.10125
1622.94,-0.1019
1622.95,-0.10192
1622.96,-0.10184
1622.97,-0.10173
1622.98,-0.10165
1622.99,-0.10152
1623,-0.10122
1623.01,-0.10198
1623.02,-0.10157
1623.03,-0.10134
1623.04,-0.10185
1623.05,-0.10156
1623.06,-0.10222
1623.07,-0.10183
1623.08,-0.10188
1623.09,-0.10156
1623.1,-0.10155
1623.11,-0.10148
1623.12,-0.10177
1623.13,-0.10195
1623.14,-0.10153
1623.15,-0.10207
1623.16,-0.10204
1623.17,-0.10227
1623.18,-0.10219
1623.19,-0.10264
1623.2,-0.10209
1623.21,-0.10242
1623.22,-0.10177
1623.23,-0.10194
1623.24,-0.10193
1623.25,-0.10317
1623.26,-0.10224
1623.27,-0.1023
1623.28,-0.10186
1623.29,-0.10268
1623.3,-0.10219
1623.31,-0.10283
1623.32,-0.10225
1623.33,-0.1023
1623.34,-0.10281
1623.35,-0.10217
1623.36,-0.10274
1623.37,-0.1026
1623.38,-0.10336
1623.39,-0.10255
1623.4,-0.1032
1623.41,-0.10295
1623.42,-0.10274
1623.43,-0.10303
1623.44,-0.10263
1623.45,-0.10254
1623.46,-0.10251
1623.47,-0.10232
1623.48,-0.10249
1623.49,-0.10224
1623.5,-0.10282
1623.51,-0.10226
1623.52,-0.10242
1623.53,-0.10244
1623.54,-0.10215
1623.55,-0.10231
1623.56,-0.10202
1623.57,-0.10209
1623.58,-0.10212
1623.59,-0.10218
1623.6,-0.10202
1623.61,-0.10223
1623.62,-0.10229
1623.63,-0.10249
1623.64,-0.1025
1623.65,-0.10266
1623.66,-0.10213
1623.67,-0.10199
1623.68,-0.10253
1623.69,-0.10226
1623.7,-0.10127
1623.71,-0.10263
1623.72,-0.10208
1623.73,-0.10174
1623.74,-0.10246
1623.75,-0.1024
1623.76,-0.10189
1623.77,-0.10217
1623.78,-0.10194
1623.79,-0.10202
1623.8,-0.10228
1623.81,-0.10192
1623.82,-0.10237
1623.83,-0.10206
1623.84,-0.10268
1623.85,-0.10222
1623.86,-0.10252
1623.87,-0.10273
1623.88,-0.10161
1623.89,-0.1018
1623.9,-0.10216
1623.91,-0.10233
1623.92,-0.10147
1623.93,-0.10241
1623.94,-0.10186
1623.95,-0.10173
1623.96,-0.10291
1623.97,-0.10204
1623.98,-0.10282
1623.99,-0.10198
1624,-0.1026
1624.01,-0.10179
1624.02,-0.1027
1624.03,-0.10248
1624.04,-0.1022
1624.05,-0.10261
1624.06,-0.10251
1624.07,-0.10344
1624.08,-0.10253
1624.09,-0.10307
1624.1,-0.10251
1624.11,-0.10333
1624.12,-0.10295
1624.13,-0.10235
1624.14,-0.10308
1624.15,-0.10265
1624.16,-0.10303
1624.17,-0.10213
1624.18,-0.10307
1624.19,-0.10308
1624.2,-0.10285
1624.21,-0.10274
1624.22,-0.10265
1624.23,-0.1024
1624.24,-0.10263
1624.25,-0.10315
1624.26,-0.10228
1624.27,-0.10346
1624.28,-0.10273
1624.29,-0.10319
1624.3,-0.10362
1624.31,-0.10266
1624.32,-0.10352
1624.33,-0.10301
1624.34,-0.10297
1624.35,-0.10307
1624.36,-0.10362
1624.37,-0.10341
1624.38,-0.10383
1624.39,-0.10417
1624.4,-0.1039
1624.41,-0.10385
1624.42,-0.10463
1624.43,-0.10388
1624.44,-0.10403
1624.45,-0.10379
1624.46,-0.1036
1624.47,-0.10381
1624.48,-0.1047
1624.49,-0.10414
1624.5,-0.10416
1624.51,-0.10436
1624.52,-0.10391
1624.53,-0.1043
1624.54,-0.10419
1624.55,-0.10439
1624.56,-0.10351
1624.57,-0.10418
1624.58,-0.10429
1624.59,-0.10399
1624.6,-0.10403
1624.61,-0.10406
1624.62,-0.10434
1624.63,-0.10388
1624.64,-0.10448
1624.65,-0.10365
1624.66,-0.10389
1624.67,-0.10356
1624.68,-0.10377
1624.69,-0.1033
1624.7,-0.10353
1624.71,-0.10325
1624.72,-0.10316
1624.73,-0.10335
1624.74,-0.10362
1624.75,-0.10377
1624.76,-0.10385
1624.77,-0.10369
1624.78,-0.10323
1624.79,-0.10333
1624.8,-0.1038
1624.81,-0.1029
1624.82,-0.10404
1624.83,-0.10336
1624.84,-0.10381
1624.85,-0.10373
1624.86,-0.10402
1624.87,-0.10308
1624.88,-0.10387
1624.89,-0.10359
1624.9,-0.10303
1624.91,-0.1037
1624.92,-0.10339
1624.93,-0.10346
1624.94,-0.10349
1624.95,-0.10393
1624.96,-0.10358
1624.97,-0.10328
1624.98,-0.10391
1624.99,-0.10367
1625,-0.10357
1625.01,-0.10322
1625.02,-0.10384
1625.03,-0.10364
1625.04,-0.10342
1625.05,-0.10366
1625.06,-0.10352
1625.07,-0.10372
1625.08,-0.10382
1625.09,-0.10366
1625.1,-0.10368
1625.11,-0.10401
1625.12,-0.10377
1625.13,-0.1031
1625.14,-0.10401
1625.15,-0.1037
1625.16,-0.1037
1625.17,-0.10344
1625.18,-0.1038
1625.19,-0.10358
1625.2,-0.10395
1625.21,-0.10409
1625.22,-0.1038
1625.23,-0.10384
1625.24,-0.1033
1625.25,-0.10373
1625.26,-0.10391
1625.27,-0.10327
1625.28,-0.10429
1625.29,-0.10362
1625.3,-0.10403
1625.31,-0.1041
1625.32,-0.10489
1625.33,-0.10399
1625.34,-0.1043
1625.35,-0.10343
1625.36,-0.1037
1625.37,-0.10432
1625.38,-0.10384
1625.39,-0.10468
1625.4,-0.10408
1625.41,-0.10462
1625.42,-0.10495
1625.43,-0.1045
1625.44,-0.10406
1625.45,-0.10457
1625.46,-0.10365
1625.47,-0.10475
1625.48,-0.1048
1625.49,-0.10396
1625.5,-0.10483
1625.51,-0.10445
1625.52,-0.10472
1625.53,-0.10459
1625.54,-0.10509
1625.55,-0.1047
1625.56,-0.1046
1625.57,-0.10499
1625.58,-0.10431
1625.59,-0.10528
1625.6,-0.10475
1625.61,-0.10502
1625.62,-0.10521
1625.63,-0.10488
1625.64,-0.10586
1625.65,-0.10472
1625.66,-0.10525
1625.67,-0.10494
1625.68,-0.10416
1625.69,-0.1048
1625.7,-0.10461
1625.71,-0.10472
1625.72,-0.10489
1625.73,-0.10544
1625.74,-0.10452
1625.75,-0.10507
1625.76,-0.10519
1625.77,-0.1057
1625.78,-0.10501
1625.79,-0.10524
1625.8,-0.10492
1625.81,-0.10487
1625.82,-0.10569
1625.83,-0.10495
1625.84,-0.10556
1625.85,-0.10544
1625.86,-0.10602
1625.87,-0.10521
1625.88,-0.10533
1625.89,-0.10579
1625.9,-0.10504
1625.91,-0.10558
1625.92,-0.10502
1625.93,-0.10505
1625.94,-0.10497
1625.95,-0.10464
1625.96,-0.10534
1625.97,-0.10528
1625.98,-0.10512
1625.99,-0.10539
1626,-0.10519
1626.01,-0.10447
1626.02,-0.10491
1626.03,-0.10504
1626.04,-0.10478
1626.05,-0.105
1626.06,-0.10515
1626.07,-0.10525
1626.08,-0.10491
1626.09,-0.10549
1626.1,-0.10509
1626.11,-0.10562
1626.12,-0.10465
1626.13,-0.10469
1626.14,-0.10515
1626.15,-0.1044
1626.16,-0.1047
1626.17,-0.10499
1626.18,-0.10503
1626.19,-0.10458
1626.2,-0.10504
1626.21,-0.10515
1626.22,-0.10541
1626.23,-0.10519
1626.24,-0.10456
1626.25,-0.10477
1626.26,-0.10473
1626.27,-0.10467
1626.28,-0.10488
1626.29,-0.10456
1626.3,-0.10469
1626.31,-0.10464
1626.32,-0.10455
1626.33,-0.1042
1626.34,-0.10448
1626.35,-0.10403
1626.36,-0.10427
1626.37,-0.10437
1626.38,-0.10399
1626.39,-0.10437
1626.4,-0.10416
1626.41,-0.10492
1626.42,-0.10459
1626.43,-0.10498
1626.44,-0.10466
1626.45,-0.10497
1626.46,-0.10488
1626.47,-0.10477
1626.48,-0.10455
1626.49,-0.10466
1626.5,-0.10491
1626.51,-0.10519
1626.52,-0.10555
1626.53,-0.10502
1626.54,-0.10577
1626.55,-0.10511
1626.56,-0.10463
1626.57,-0.10496
1626.58,-0.1044
1626.59,-0.10448
1626.6,-0.10449
1626.61,-0.10472
1626.62,-0.1044
1626.63,-0.10503
1626.64,-0.10473
1626.65,-0.10482
1626.66,-0.10467
1626.67,-0.10458
1626.68,-0.10463
1626.69,-0.10466
1626.7,-0.10435
1626.71,-0.10425
1626.72,-0.10444
1626.73,-0.10474
1626.74,-0.10457
1626.75,-0.10478
1626.76,-0.10497
1626.77,-0.10596
1626.78,-0.10477
1626.79,-0.10522
1626.8,-0.10536
1626.81,-0.10546
1626.82,-0.10542
1626.83,-0.10533
1626.84,-0.10543
1626.85,-0.10555
1626.86,-0.10583
1626.87,-0.10498
1626.88,-0.10505
1626.89,-0.10564
1626.9,-0.10537
1626.91,-0.1051
1626.92,-0.10441
1626.93,-0.10487
1626.94,-0.10511
1626.95,-0.10494
1626.96,-0.10499
1626.97,-0.10564
1626.98,-0.10476
1626.99,-0.10576
1627,-0.10524
1627.01,-0.10545
1627.02,-0.10547
1627.03,-0.10527
1627.04,-0.10585
1627.05,-0.10599
1627.06,-0.10544
1627.07,-0.10619
1627.08,-0.10542
1627.09,-0.10561
1627.1,-0.10577
1627.11,-0.10496
1627.12,-0.10566
1627.13,-0.10502
1627.14,-0.10481
1627.15,-0.10516
1627.16,-0.10527
1627.17,-0.10578
1627.18,-0.10511
1627.19,-0.10578
1627.2,-0.10551
1627.21,-0.10579
1627.22,-0.10605
1627.23,-0.10558
1627.24,-0.1053
1627.25,-0.106
1627.26,-0.10582
1627.27,-0.10534
1627.28,-0.10507
1627.29,-0.10575
1627.3,-0.10538
1627.31,-0.10551
1627.32,-0.10559
1627.33,-0.10557
1627.34,-0.10516
1627.35,-0.105
1627.36,-0.10514
1627.37,-0.10506
1627.38,-0.1052
1627.39,-0.10496
1627.4,-0.1048
1627.41,-0.10479
1627.42,-0.10473
1627.43,-0.10534
1627.44,-0.10457
1627.45,-0.1054
1627.46,-0.10507
1627.47,-0.10448
1627.48,-0.10502
1627.49,-0.10463
1627.5,-0.10493
1627.51,-0.10469
1627.52,-0.10487
1627.53,-0.10522
1627.54,-0.10483
1627.55,-0.10466
1627.56,-0.10503
1627.57,-0.10498
1627.58,-0.10436
1627.59,-0.10502
1627.6,-0.10461
1627.61,-0.10492
1627.62,-0.10494
1627.63,-0.10474
1627.64,-0.10532
1627.65,-0.10538
1627.66,-0.10529
1627.67,-0.10511
1627.68,-0.10559
1627.69,-0.10467
1627.7,-0.10534
1627.71,-0.10462
1627.72,-0.10466
1627.73,-0.10529
1627.74,-0.10555
1627.75,-0.10548
1627.76,-0.10539
1627.77,-0.10535
1627.78,-0.10512
1627.79,-0.10524
1627.8,-0.10475
1627.81,-0.10487
1627.82,-0.10509
1627.83,-0.10479
1627.84,-0.10486
1627.85,-0.10507
1627.86,-0.10524
1627.87,-0.10538
1627.88,-0.10516
1627.89,-0.10515
1627.9,-0.1051
1627.91,-0.10533
1627.92,-0.10528
1627.93,-0.10551
1627.94,-0.10524
1627.95,-0.10594
1627.96,-0.10578
1627.97,-0.10613
1627.98,-0.10505
1627.99,-0.1057
1628,-0.10589
1628.01,-0.10572
1628.02,-0.10531
1628.03,-0.10576
1628.04,-0.10518
1628.05,-0.106
1628.06,-0.10613
1628.07,-0.10623
1628.08,-0.10652
1628.09,-0.10955
1628.1,-0.12166
1628.11,-0.14525
1628.12,-0.18475
1628.13,-0.24178
1628.14,-0.31583
1628.15,-0.39692
1628.16,-0.47579
1628.17,-0.53278
1628.18,-0.55922
1628.19,-0.54658
1628.2,-0.49662
1628.21,-0.42326
1628.22,-0.34424
1628.23,-0.26863
1628.24,-0.20662
1628.25,-0.16356
1628.26,-0.13631
1628.27,-0.12025
1628.28,-0.11119
1628.29,-0.108
1628.3,-0.10699
1628.31,-0.10705
1628.32,-0.10679
1628.33,-0.1069
1628.34,-0.10687
1628.35,-0.10659
1628.36,-0.10672
1628.37,-0.10671
1628.38,-0.1073
1628.39,-0.10681
1628.4,-0.10754
1628.41,-0.10738
1628.42,-0.10746
1628.43,-0.10742
1628.44,-0.10764
1628.45,-0.10768
1628.46,-0.10769
1628.47,-0.10729
1628.48,-0.10707
1628.49,-0.10749
1628.5,-0.10713
1628.51,-0.10694
1628.52,-0.10701
1628.53,-0.10705
1628.54,-0.10661
1628.55,-0.10716
1628.56,-0.10741
1628.57,-0.10706
1628.58,-0.10722
1628.59,-0.10709
1628.6,-0.10661
1628.61,-0.10706
1628.62,-0.1071
1628.63,-0.10683
1628.64,-0.10657
1628.65,-0.10645
1628.66,-0.1065
1628.67,-0.10684
1628.68,-0.10678
1628.69,-0.10644
1628.7,-0.10575
1628.71,-0.10591
1628.72,-0.10606
1628.73,-0.10635
1628.74,-0.10612
1628.75,-0.10671
1628.76,-0.10592
1628.77,-0.10646
1628.78,-0.10641
1628.79,-0.10636
1628.8,-0.10682
1628.81,-0.10603
1628.82,-0.10606
1628.83,-0.10674
1628.84,-0.10607
1628.85,-0.10661
1628.86,-0.10617
1628.87,-0.10687
1628.88,-0.1066
1628.89,-0.10682
1628.9,-0.10709
1628.91,-0.10672
1628.92,-0.10639
1628.93,-0.10633
1628.94,-0.10663
1628.95,-0.1064
1628.96,-0.10636
1628.97,-0.10637
1628.98,-0.10635
1628.99,-0.10638
1629,-0.10645
1629.01,-0.10684
1629.02,-0.1065
1629.03,-0.10645
1629.04,-0.10645
1629.05,-0.10681
1629.06,-0.10634
1629.07,-0.10708
1629.08,-0.10673
1629.09,-0.10642
1629.1,-0.10803
1629.11,-0.10695
1629.12,-0.10764
1629.13,-0.10801
1629.14,-0.1077
1629.15,-0.10753
1629.16,-0.10759
1629.17,-0.10816
1629.18,-0.10751
1629.19,-0.10834
1629.2,-0.10768
1629.21,-0.1084
1629.22,-0.10727
1629.23,-0.10861
1629.24,-0.10744
1629.25,-0.10795
1629.26,-0.10735
1629.27,-0.10724
1629.28,-0.1079
1629.29,-0.10713
1629.3,-0.10773
1629.31,-0.10789
1629.32,-0.10797
1629.33,-0.10795
1629.34,-0.10802
1629.35,-0.10858
1629.36,-0.10766
1629.37,-0.10856
1629.38,-0.10828
1629.39,-0.10859
1629.4,-0.10858
1629.41,-0.1086
1629.42,-0.10883
1629.43,-0.1089
1629.44,-0.10937
1629.45,-0.10836
1629.46,-0.1091
1629.47,-0.10806
1629.48,-0.10839
1629.49,-0.10803
1629.5,-0.10829
1629.51,-0.10816
1629.52,-0.10867
1629.53,-0.10874
1629.54,-0.10798
1629.55,-0.10894
1629.56,-0.10871
1629.57,-0.1094
1629.58,-0.10924
1629.59,-0.10893
1629.6,-0.10912
1629.61,-0.10922
1629.62,-0.10929
1629.63,-0.10951
1629.64,-0.10976
1629.65,-0.10952
1629.66,-0.10986
1629.67,-0.1095
1629.68,-0.11048
1629.69,-0.10983
1629.7,-0.10941
1629.71,-0.11043
1629.72,-0.10965
1629.73,-0.10958
1629.74,-0.11042
1629.75,-0.11017
1629.76,-0.10952
1629.77,-0.10983
1629.78,-0.10963
1629.79,-0.10875
1629.8,-0.10968
1629.81,-0.10887
1629.82,-0.10905
1629.83,-0.10872
1629.84,-0.10841
1629.85,-0.10847
1629.86,-0.10823
1629.87,-0.10859
1629.88,-0.10867
1629.89,-0.10922
1629.9,-0.10912
1629.91,-0.10856
1629.92,-0.10873
1629.93,-0.10886
1629.94,-0.10872
1629.95,-0.10874
1629.96,-0.10888
1629.97,-0.1087
1629.98,-0.10854
1629.99,-0.10917
1630,-0.10903
1630.01,-0.10924
1630.02,-0.10821
1630.03,-0.10892
1630.04,-0.108
1630.05,-0.10857
1630.06,-0.10823
1630.07,-0.10847
1630.08,-0.10869
1630.09,-0.10787
1630.1,-0.10857
1630.11,-0.10802
1630.12,-0.10897
1630.13,-0.10827
1630.14,-0.10846
1630.15,-0.10808
1630.16,-0.10837
1630.17,-0.10787
1630.18,-0.1084
1630.19,-0.10877
1630.2,-0.10812
1630.21,-0.10898
1630.22,-0.10911
1630.23,-0.10913
1630.24,-0.10911
1630.25,-0.10966
1630.26,-0.10943
1630.27,-0.10881
1630.28,-0.10971
1630.29,-0.10905
1630.3,-0.10888
1630.31,-0.10929
1630.32,-0.1087
1630.33,-0.10935
1630.34,-0.10861
1630.35,-0.10931
1630.36,-0.10913
1630.37,-0.10901
1630.38,-0.1084
1630.39,-0.10855
1630.4,-0.10826
1630.41,-0.10819
1630.42,-0.10913
1630.43,-0.10836
1630.44,-0.10904
1630.45,-0.10978
1630.46,-0.11073
1630.47,-0.11072
1630.48,-0.11101
1630.49,-0.11028
1630.5,-0.11399
1630.51,-0.12776
1630.52,-0.16193
1630.53,-0.22803
1630.54,-0.33445
1630.55,-0.47596
1630.56,-0.63679
1630.57,-0.79942
1630.58,-0.92484
1630.59,-0.99725
1630.6,-0.99866
1630.61,-0.93323
1630.62,-0.82633
1630.63,-0.67827
1630.64,-0.52132
1630.65,-0.38526
1630.66,-0.27347
1630.67,-0.19766
1630.68,-0.15341
1630.69,-0.12812
1630.7,-0.11735
1630.71,-0.11399
1630.72,-0.11221
1630.73,-0.1125
1630.74,-0.11253
1630.75,-0.11171
1630.76,-0.11252
1630.77,-0.11174
1630.78,-0.11129
1630.79,-0.11146
1630.8,-0.11136
1630.81,-0.11094
1630.82,-0.11053
1630.83,-0.11028
1630.84,-0.11004
1630.85,-0.11035
1630.86,-0.1103
1630.87,-0.11034
1630.88,-0.11066
1630.89,-0.111
1630.9,-0.11083
1630.91,-0.11118
1630.92,-0.11098
1630.93,-0.11111
1630.94,-0.11155
1630.95,-0.11149
1630.96,-0.11197
1630.97,-0.11177
1630.98,-0.11216
1630.99,-0.11219
1631,-0.11254
1631.01,-0.11233
1631.02,-0.11238
1631.03,-0.11202
1631.04,-0.11156
1631.05,-0.11136
1631.06,-0.11132
1631.07,-0.1119
1631.08,-0.11167
1631.09,-0.11156
1631.1,-0.11268
1631.11,-0.11281
1631.12,-0.11279
1631.13,-0.11269
1631.14,-0.11249
1631.15,-0.11209
1631.16,-0.11146
1631.17,-0.11187
1631.18,-0.11083
1631.19,-0.11056
1631.2,-0.11091
1631.21,-0.11032
1631.22,-0.1102
1631.23,-0.11018
1631.24,-0.11037
1631.25,-0.10988
1631.26,-0.11014
1631.27,-0.10936
1631.28,-0.10972
1631.29,-0.1093
1631.3,-0.11047
1631.31,-0.10956
1631.32,-0.1104
1631.33,-0.11078
1631.34,-0.11044
1631.35,-0.11215
1631.36,-0.11109
1631.37,-0.11155
1631.38,-0.1115
1631.39,-0.11167
1631.4,-0.11163
1631.41,-0.11165
1631.42,-0.11227
1631.43,-0.11138
1631.44,-0.1125
1631.45,-0.11211
1631.46,-0.11225
1631.47,-0.11155
1631.48,-0.11109
1631.49,-0.11107
1631.5,-0.10922
1631.51,-0.11029
1631.52,-0.10863
1631.53,-0.10961
1631.54,-0.10917
1631.55,-0.10955
1631.56,-0.10915
1631.57,-0.10966
1631.58,-0.10957
1631.59,-0.10916
1631.6,-0.10983
1631.61,-0.10918
1631.62,-0.10905
1631.63,-0.10958
1631.64,-0.10931
1631.65,-0.10973
1631.66,-0.11002
1631.67,-0.11088
1631.68,-0.11112
1631.69,-0.11193
1631.7,-0.1118
1631.71,-0.11218
1631.72,-0.11218
1631.73,-0.11288
1631.74,-0.11193
1631.75,-0.11292
1631.76,-0.11079
1631.77,-0.11261
1631.78,-0.11082
1631.79,-0.11061
1631.8,-0.11002
1631.81,-0.11009
1631.82,-0.10965
1631.83,-0.10938
1631.84,-0.10896
1631.85,-0.11018
1631.86,-0.10887
1631.87,-0.10994
1631.88,-0.10989
1631.89,-0.10969
1631.9,-0.1103
1631.91,-0.11112
1631.92,-0.11125
1631.93,-0.11182
1631.94,-0.11206
1631.95,-0.11258
1631.96,-0.11299
1631.97,-0.11259
1631.98,-0.11307
1631.99,-0.11249
1632,-0.11218
1632.01,-0.11202
1632.02,-0.1115
1632.03,-0.11133
1632.04,-0.11065
1632.05,-0.11041
1632.06,-0.11047
1632.07,-0.11
1632.08,-0.11106
1632.09,-0.11027
1632.1,-0.11098
1632.11,-0.11121
1632.12,-0.11159
1632.13,-0.1123
1632.14,-0.11236
1632.15,-0.11283
1632.16,-0.11269
1632.17,-0.11294
1632.18,-0.11246
1632.19,-0.11265
1632.2,-0.11245
1632.21,-0.11295
1632.22,-0.1131
1632.23,-0.113
1632.24,-0.11371
1632.25,-0.11374
1632.26,-0.11292
1632.27,-0.11368
1632.28,-0.11281
1632.29,-0.11265
1632.3,-0.11235
1632.31,-0.11197
1632.32,-0.11105
1632.33,-0.11199
1632.34,-0.11143
1632.35,-0.11112
1632.36,-0.11154
1632.37,-0.11108
1632.38,-0.11049
1632.39,-0.11098
1632.4,-0.11125
1632.41,-0.11063
1632.42,-0.11081
1632.43,-0.11102
1632.44,-0.11116
1632.45,-0.11112
1632.46,-0.11151
1632.47,-0.11115
1632.48,-0.11147
1632.49,-0.11166
1632.5,-0.11129
1632.51,-0.11126
1632.52,-0.11155
1632.53,-0.11152
1632.54,-0.11144
1632.55,-0.11165
1632.56,-0.11188
1632.57,-0.11141
1632.58,-0.11086
1632.59,-0.11096
1632.6,-0.11062
1632.61,-0.11049
1632.62,-0.11037
1632.63,-0.11002
1632.64,-0.11058
1632.65,-0.11006
1632.66,-0.11038
1632.67,-0.11044
1632.68,-0.11038
1632.69,-0.11087
1632.7,-0.1108
1632.71,-0.11121
1632.72,-0.11047
1632.73,-0.11129
1632.74,-0.11138
1632.75,-0.11124
1632.76,-0.11163
1632.77,-0.11142
1632.78,-0.11183
1632.79,-0.11161
1632.8,-0.11212
1632.81,-0.11067
1632.82,-0.11223
1632.83,-0.11106
1632.84,-0.11124
1632.85,-0.11173
1632.86,-0.11164
1632.87,-0.1178
1632.88,-0.13448
1632.89,-0.17223
1632.9,-0.23331
1632.91,-0.33113
1632.92,-0.45898
1632.93,-0.59787
1632.94,-0.73082
1632.95,-0.8222
1632.96,-0.86319
1632.97,-0.84489
1632.98,-0.77261
1632.99,-0.66299
1633,-0.53578
1633.01,-0.41016
1633.02,-0.30257
1633.03,-0.21843
1633.04,-0.16586
1633.05,-0.13587
1633.06,-0.1209
1633.07,-0.11405
1633.08,-0.11182
1633.09,-0.11197
1633.1,-0.11062
1633.11,-0.11127
1633.12,-0.11149
1633.13,-0.11146
1633.14,-0.11155
1633.15,-0.11131
1633.16,-0.11076
1633.17,-0.11141
1633.18,-0.11106
1633.19,-0.11178
1633.2,-0.11178
1633.21,-0.11226
1633.22,-0.11256
1633.23,-0.11315
1633.24,-0.11346
1633.25,-0.11304
1633.26,-0.11376
1633.27,-0.1126
1633.28,-0.11314
1633.29,-0.11268
1633.3,-0.11295
1633.31,-0.11309
1633.32,-0.11312
1633.33,-0.1138
1633.34,-0.11368
1633.35,-0.11381
1633.36,-0.11392
1633.37,-0.11455
1633.38,-0.11404
1633.39,-0.11419
1633.4,-0.1139
1633.41,-0.11401
1633.42,-0.11394
1633.43,-0.11353
1633.44,-0.1134
1633.45,-0.11278
1633.46,-0.11315
1633.47,-0.11272
1633.48,-0.11241
1633.49,-0.11219
1633.5,-0.11233
1633.51,-0.11186
1633.52,-0.11198
1633.53,-0.11259
1633.54,-0.11247
1633.55,-0.11242
1633.56,-0.11251
1633.57,-0.11284
1633.58,-0.11319
1633.59,-0.11425
1633.6,-0.11362
1633.61,-0.1137
1633.62,-0.11405
1633.63,-0.1143
1633.64,-0.1145
1633.65,-0.11524
1633.66,-0.11514
1633.67,-0.11566
1633.68,-0.11561
1633.69,-0.1157
1633.7,-0.1161
1633.71,-0.11593
1633.72,-0.11567
1633.73,-0.11438
1633.74,-0.11432
1633.75,-0.11388
1633.76,-0.11373
1633.77,-0.11342
1633.78,-0.11302
1633.79,-0.11322
1633.8,-0.11241
1633.81,-0.11267
1633.82,-0.11188
1633.83,-0.11207
1633.84,-0.11171
1633.85,-0.11164
1633.86,-0.11243
1633.87,-0.11171
1633.88,-0.11214
1633.89,-0.11168
1633.9,-0.11228
1633.91,-0.11246
1633.92,-0.11236
1633.93,-0.11319
1633.94,-0.11302
1633.95,-0.11408
1633.96,-0.11359
1633.97,-0.1145
1633.98,-0.11465
1633.99,-0.1153
1634,-0.11541
1634.01,-0.11515
1634.02,-0.11454
1634.03,-0.11443
1634.04,-0.11373
1634.05,-0.11243
1634.06,-0.11241
1634.07,-0.11258
1634.08,-0.11206
1634.09,-0.11184
1634.1,-0.11158
1634.11,-0.1123
1634.12,-0.11125
1634.13,-0.11198
1634.14,-0.1122
1634.15,-0.11214
1634.16,-0.1123
1634.17,-0.11212
1634.18,-0.11226
1634.19,-0.11319
1634.2,-0.11407
1634.21,-0.11395
1634.22,-0.11452
1634.23,-0.11476
1634.24,-0.11577
1634.25,-0.11454
1634.26,-0.11277
1634.27,-0.11408
1634.28,-0.11285
1634.29,-0.1127
1634.3,-0.11222
1634.31,-0.11268
1634.32,-0.11211
1634.33,-0.11204
1634.34,-0.11311
1634.35,-0.1122
1634.36,-0.11345
1634.37,-0.11313
1634.38,-0.11388
1634.39,-0.11276
1634.4,-0.11379
1634.41,-0.11302
1634.42,-0.11358
1634.43,-0.11392
1634.44,-0.11356
1634.45,-0.11394
1634.46,-0.11395
1634.47,-0.11363
1634.48,-0.11344
1634.49,-0.11327
1634.5,-0.11359
1634.51,-0.11341
1634.52,-0.11389
1634.53,-0.1134
1634.54,-0.11343
1634.55,-0.11345
1634.56,-0.11324
1634.57,-0.11333
1634.58,-0.11299
1634.59,-0.11372
1634.6,-0.11344
1634.61,-0.11292
1634.62,-0.11269
1634.63,-0.11335
1634.64,-0.11257
1634.65,-0.11358
1634.66,-0.11275
1634.67,-0.11264
1634.68,-0.11364
1634.69,-0.11302
1634.7,-0.11347
1634.71,-0.11294
1634.72,-0.11309
1634.73,-0.11191
1634.74,-0.11477
1634.75,-0.11207
1634.76,-0.1129
1634.77,-0.11361
1634.78,-0.11323
1634.79,-0.11337
1634.8,-0.11338
1634.81,-0.11435
1634.82,-0.11387
1634.83,-0.11415
1634.84,-0.11409
1634.85,-0.11419
1634.86,-0.11405
1634.87,-0.11428
1634.88,-0.11476
1634.89,-0.11426
1634.9,-0.11487
1634.91,-0.115
1634.92,-0.11479
1634.93,-0.11547
1634.94,-0.11488
1634.95,-0.1147
1634.96,-0.11428
1634.97,-0.11381
1634.98,-0.11373
1634.99,-0.11429
1635,-0.11382
1635.01,-0.11409
1635.02,-0.11473
1635.03,-0.11431
1635.04,-0.11446
1635.05,-0.11434
1635.06,-0.11422
1635.07,-0.11395
1635.08,-0.11392
1635.09,-0.11441
1635.1,-0.11486
1635.11,-0.11447
1635.12,-0.11494
1635.13,-0.11487
1635.14,-0.11475
1635.15,-0.11555
1635.16,-0.11474
1635.17,-0.11531
1635.18,-0.11464
1635.19,-0.11424
1635.2,-0.11409
1635.21,-0.11422
1635.22,-0.1138
1635.23,-0.11401
1635.24,-0.11416
1635.25,-0.11395
1635.26,-0.11447
1635.27,-0.11423
1635.28,-0.11462
1635.29,-0.11367
1635.3,-0.11377
1635.31,-0.11397
1635.32,-0.1137
1635.33,-0.11387
1635.34,-0.11395
1635.35,-0.1151
1635.36,-0.116
1635.37,-0.11652
1635.38,-0.11781
1635.39,-0.11719
1635.4,-0.11768
1635.41,-0.12717
1635.42,-0.18028
1635.43,-0.31518
1635.44,-0.57115
1635.45,-0.95155
1635.46,-1.4261
1635.47,-1.92711
1635.48,-2.35529
1635.49,-2.70653
1635.5,-2.939
1635.51,-2.99313
1635.52,-2.86573
1635.53,-2.56481
1635.54,-2.14628
1635.55,-1.67802
1635.56,-1.22521
1635.57,-0.80787
1635.58,-0.50975
1635.59,-0.31242
1635.6,-0.20022
1635.61,-0.14952
1635.62,-0.12838
1635.63,-0.12053
1635.64,-0.11706
1635.65,-0.11668
1635.66,-0.11545
1635.67,-0.11516
1635.68,-0.11506
1635.69,-0.1144
1635.7,-0.11436
1635.71,-0.11399
1635.72,-0.11331
1635.73,-0.11421
1635.74,-0.11436
1635.75,-0.11332
1635.76,-0.1137
1635.77,-0.11382
1635.78,-0.11352
1635.79,-0.11399
1635.8,-0.11359
1635.81,-0.11445
1635.82,-0.11432
1635.83,-0.11538
1635.84,-0.11474
1635.85,-0.11442
1635.86,-0.11511
1635.87,-0.11563
1635.88,-0.1157
1635.89,-0.11595
1635.9,-0.11564
1635.91,-0.11592
1635.92,-0.11604
1635.93,-0.11585
1635.94,-0.11538
1635.95,-0.11527
1635.96,-0.1151
1635.97,-0.11524
1635.98,-0.11565
1635.99,-0.11569
1636,-0.11606
1636.01,-0.11584
1636.02,-0.11682
1636.03,-0.11708
1636.04,-0.11674
1636.05,-0.11657
1636.06,-0.11628
1636.07,-0.11572
1636.08,-0.11527
1636.09,-0.11467
1636.1,-0.11454
1636.11,-0.11455
1636.12,-0.11427
1636.13,-0.11453
1636.14,-0.11487
1636.15,-0.11469
1636.16,-0.1148
1636.17,-0.11443
1636.18,-0.11439
1636.19,-0.11451
1636.2,-0.11445
1636.21,-0.11419
1636.22,-0.11503
1636.23,-0.11503
1636.24,-0.11706
1636.25,-0.11499
1636.26,-0.11717
1636.27,-0.11692
1636.28,-0.11668
1636.29,-0.1174
1636.3,-0.11711
1636.31,-0.1173
1636.32,-0.11751
1636.33,-0.11767
1636.34,-0.11739
1636.35,-0.11791
1636.36,-0.11777
1636.37,-0.11799
1636.38,-0.1172
1636.39,-0.11671
1636.4,-0.11639
1636.41,-0.11554
1636.42,-0.11539
1636.43,-0.1149
1636.44,-0.11465
1636.45,-0.11495
1636.46,-0.11458
1636.47,-0.11489
1636.48,-0.11488
1636.49,-0.11522
1636.5,-0.11447
1636.51,-0.11539
1636.52,-0.11458
1636.53,-0.11513
1636.54,-0.11516
1636.55,-0.1154
1636.56,-0.11514
1636.57,-0.11575
1636.58,-0.11645
1636.59,-0.11684
1636.6,-0.11754
1636.61,-0.11744
1636.62,-0.11753
1636.63,-0.11829
1636.64,-0.1174
1636.65,-0.11794
1636.66,-0.1171
1636.67,-0.11691
1636.68,-0.11601
1636.69,-0.11606
1636.7,-0.11543
1636.71,-0.11485
1636.72,-0.1153
1636.73,-0.1142
1636.74,-0.1139
1636.75,-0.11456
1636.76,-0.11384
1636.77,-0.11378
1636.78,-0.11416
1636.79,-0.11476
1636.8,-0.11468
1636.81,-0.11562
1636.82,-0.11594
1636.83,-0.1164
1636.84,-0.11627
1636.85,-0.11688
1636.86,-0.11685
1636.87,-0.11718
1636.88,-0.1167
1636.89,-0.11701
1636.9,-0.116
1636.91,-0.11534
1636.92,-0.11498
1636.93,-0.11497
1636.94,-0.11447
1636.95,-0.11423
1636.96,-0.1137
1636.97,-0.11405
1636.98,-0.11355
1636.99,-0.11361
1637,-0.11387
1637.01,-0.11406
1637.02,-0.11423
1637.03,-0.11467
1637.04,-0.11541
1637.05,-0.11583
1637.06,-0.11611
1637.07,-0.11547
1637.08,-0.11535
1637.09,-0.11538
1637.1,-0.11569
1637.11,-0.11593
1637.12,-0.11565
1637.13,-0.11592
1637.14,-0.11633
1637.15,-0.11654
1637.16,-0.11696
1637.17,-0.11723
1637.18,-0.1166
1637.19,-0.11698
1637.2,-0.11597
1637.21,-0.11578
1637.22,-0.11511
1637.23,-0.11464
1637.24,-0.11505
1637.25,-0.114
1637.26,-0.11475
1637.27,-0.11452
1637.28,-0.11427
1637.29,-0.11428
1637.3,-0.11386
1637.31,-0.11382
1637.32,-0.11344
1637.33,-0.11409
1637.34,-0.11386
1637.35,-0.11452
1637.36,-0.11412
1637.37,-0.11489
1637.38,-0.115
1637.39,-0.11464
1637.4,-0.11502
1637.41,-0.11509
1637.42,-0.11593
1637.43,-0.11528
1637.44,-0.11584
1637.45,-0.11533
1637.46,-0.11596
1637.47,-0.11531
1637.48,-0.11579
1637.49,-0.11557
1637.5,-0.11549
1637.51,-0.11519
1637.52,-0.11509
1637.53,-0.1151
1637.54,-0.11529
1637.55,-0.11524
1637.56,-0.11505
1637.57,-0.11478
1637.58,-0.11502
1637.59,-0.11486
1637.6,-0.11547
1637.61,-0.11551
1637.62,-0.1161
1637.63,-0.11774
1637.64,-0.11857
1637.65,-0.11849
1637.66,-0.11871
1637.67,-0.12574
1637.68,-0.15255
1637.69,-0.23399
1637.7,-0.41171
1637.71,-0.68603
1637.72,-1.06667
1637.73,-1.53103
1637.74,-2.00398
1637.75,-2.39783
1637.76,-2.67514
1637.77,-2.79566
1637.78,-2.74736
1637.79,-2.5287
1637.8,-2.17641
1637.81,-1.73354
1637.82,-1.30827
1637.83,-0.91266
1637.84,-0.59358
1637.85,-0.36728
1637.86,-0.23845
1637.87,-0.17027
1637.88,-0.13484
1637.89,-0.12137
1637.9,-0.11761
1637.91,-0.11633
1637.92,-0.11741
1637.93,-0.11659
1637.94,-0.1168
1637.95,-0.11702
1637.96,-0.11712
1637.97,-0.11698
1637.98,-0.11686
1637.99,-0.11642
1638,-0.11668
1638.01,-0.11653
1638.02,-0.1162
1638.03,-0.11582
1638.04,-0.11586
1638.05,-0.11602
1638.06,-0.11547
1638.07,-0.11508
1638.08,-0.11507
1638.09,-0.11435
1638.1,-0.11497
1638.11,-0.1147
1638.12,-0.11582
1638.13,-0.11562
1638.14,-0.11596
1638.15,-0.11643
1638.16,-0.11742
1638.17,-0.11809
1638.18,-0.11782
1638.19,-0.11806
1638.2,-0.11844
1638.21,-0.11824
1638.22,-0.11798
1638.23,-0.11854
1638.24,-0.11546
1638.25,-0.11691
1638.26,-0.11678
1638.27,-0.11593
1638.28,-0.11581
1638.29,-0.11558
1638.3,-0.11495
1638.31,-0.11468
1638.32,-0.11466
1638.33,-0.11432
1638.34,-0.11492
1638.35,-0.11527
1638.36,-0.11485
1638.37,-0.11599
1638.38,-0.11581
1638.39,-0.11661
1638.4,-0.11662
1638.41,-0.11715
1638.42,-0.11732
1638.43,-0.11764
1638.44,-0.11834
1638.45,-0.11827
1638.46,-0.11807
1638.47,-0.11884
1638.48,-0.11882
1638.49,-0.11905
1638.5,-0.11863
1638.51,-0.11845
1638.52,-0.11762
1638.53,-0.11816
1638.54,-0.1186
1638.55,-0.11905
1638.56,-0.11961
1638.57,-0.12022
1638.58,-0.1206
1638.59,-0.12145
1638.6,-0.12162
1638.61,-0.12203
1638.62,-0.12227
1638.63,-0.12299
1638.64,-0.12149
1638.65,-0.12145
1638.66,-0.11948
1638.67,-0.1182
1638.68,-0.11701
1638.69,-0.11696
1638.7,-0.11595
1638.71,-0.1165
1638.72,-0.11645
1638.73,-0.11651
1638.74,-0.11626
1638.75,-0.11636
1638.76,-0.11578
1638.77,-0.11637
1638.78,-0.11667
1638.79,-0.11673
1638.8,-0.11764
1638.81,-0.118
1638.82,-0.11897
1638.83,-0.11929
1638.84,-0.11984
1638.85,-0.11997
1638.86,-0.12047
1638.87,-0.12014
1638.88,-0.12073
1638.89,-0.12118
1638.9,-0.1215
1638.91,-0.12152
1638.92,-0.12125
1638.93,-0.12139
1638.94,-0.12132
1638.95,-0.12047
1638.96,-0.1195
1638.97,-0.11826
1638.98,-0.11766
1638.99,-0.11681
1639,-0.11677
1639.01,-0.1164
1639.02,-0.11566
1639.03,-0.116
1639.04,-0.11586
1639.05,-0.1161
1639.06,-0.11587
1639.07,-0.11626
1639.08,-0.11602
1639.09,-0.11579
1639.1,-0.11632
1639.11,-0.11634
1639.12,-0.11692
1639.13,-0.11753
1639.14,-0.11805
1639.15,-0.11952
1639.16,-0.11997
1639.17,-0.12115
1639.18,-0.122
1639.19,-0.12266
1639.2,-0.12293
1639.21,-0.12316
1639.22,-0.12235
1639.23,-0.12215
1639.24,-0.1211
1639.25,-0.12074
1639.26,-0.11901
1639.27,-0.11855
1639.28,-0.11791
1639.29,-0.117
1639.3,-0.1164
1639.31,-0.1163
1639.32,-0.11575
1639.33,-0.11612
1639.34,-0.11558
1639.35,-0.11602
1639.36,-0.1164
1639.37,-0.11665
1639.38,-0.11738
1639.39,-0.11817
1639.4,-0.11961
1639.41,-0.12015
1639.42,-0.12029
1639.43,-0.12182
1639.44,-0.12192
1639.45,-0.1218
1639.46,-0.12193
1639.47,-0.12088
1639.48,-0.11987
1639.49,-0.1193
1639.5,-0.11868
1639.51,-0.11764
1639.52,-0.11729
1639.53,-0.11661
1639.54,-0.11653
1639.55,-0.11614
1639.56,-0.11551
1639.57,-0.11631
1639.58,-0.11678
1639.59,-0.11736
1639.6,-0.11765
1639.61,-0.11866
1639.62,-0.11931
1639.63,-0.1195
1639.64,-0.11972
1639.65,-0.11972
1639.66,-0.11915
1639.67,-0.11927
1639.68,-0.11913
1639.69,-0.11895
1639.7,-0.11917
1639.71,-0.11966
1639.72,-0.12017
1639.73,-0.12069
1639.74,-0.12088
1639.75,-0.12064
1639.76,-0.12148
1639.77,-0.12042
1639.78,-0.12031
1639.79,-0.12025
1639.8,-0.11941
1639.81,-0.11907
1639.82,-0.11893
1639.83,-0.11912
1639.84,-0.11863
1639.85,-0.11869
1639.86,-0.11654
1639.87,-0.11813
1639.88,-0.1171
1639.89,-0.11657
1639.9,-0.11659
1639.91,-0.11725
1639.92,-0.11726
1639.93,-0.11669
1639.94,-0.1174
1639.95,-0.11698
1639.96,-0.11793
1639.97,-0.11731
1639.98,-0.11818
1639.99,-0.11754
1640,-0.11755
1640.01,-0.11785
1640.02,-0.11759
1640.03,-0.11857
1640.04,-0.11861
1640.05,-0.11887
1640.06,-0.11923
1640.07,-0.11953
1640.08,-0.11975
1640.09,-0.11885
1640.1,-0.11892
1640.11,-0.11878
1640.12,-0.11818
1640.13,-0.11808
1640.14,-0.11814
1640.15,-0.11807
1640.16,-0.1181
1640.17,-0.11876
1640.18,-0.11834
1640.19,-0.11888
1640.2,-0.11859
1640.21,-0.11769
1640.22,-0.11786
1640.23,-0.11763
1640.24,-0.11865
1640.25,-0.11854
1640.26,-0.11959
1640.27,-0.12134
1640.28,-0.12253
1640.29,-0.12379
1640.3,-0.12377
1640.31,-0.12723
1640.32,-0.14503
1640.33,-0.21585
1640.34,-0.36577
1640.35,-0.6141
1640.36,-0.9763
1640.37,-1.42044
1640.38,-1.93859
1640.39,-2.40289
1640.4,-2.75301
1640.41,-2.93512
1640.42,-2.94477
1640.43,-2.78178
1640.44,-2.47468
1640.45,-2.08201
1640.46,-1.63184
1640.47,-1.19061
1640.48,-0.79491
1640.49,-0.50564
1640.5,-0.3054
1640.51,-0.19946
1640.52,-0.15103
1640.53,-0.13085
1640.54,-0.12341
1640.55,-0.12162
1640.56,-0.12071
1640.57,-0.12073
1640.58,-0.12094
1640.59,-0.1206
1640.6,-0.121
1640.61,-0.1204
1640.62,-0.12182
1640.63,-0.12053
1640.64,-0.12143
1640.65,-0.11901
1640.66,-0.11915
1640.67,-0.11855
1640.68,-0.11862
1640.69,-0.11866
1640.7,-0.11867
1640.71,-0.11889
1640.72,-0.11886
1640.73,-0.11923
1640.74,-0.11875
1640.75,-0.12025
1640.76,-0.11974
1640.77,-0.12036
1640.78,-0.12159
1640.79,-0.12182
1640.8,-0.12285
1640.81,-0.12349
1640.82,-0.12404
1640.83,-0.12365
1640.84,-0.12382
1640.85,-0.12336
1640.86,-0.12201
1640.87,-0.12143
1640.88,-0.12097
1640.89,-0.11989
1640.9,-0.11946
1640.91,-0.11891
1640.92,-0.11874
1640.93,-0.11845
1640.94,-0.11801
1640.95,-0.11898
1640.96,-0.11841
1640.97,-0.11895
1640.98,-0.11813
1640.99,-0.11864
1641,-0.11831
1641.01,-0.11892
1641.02,-0.11958
1641.03,-0.11988
1641.04,-0.12104
1641.05,-0.12111
1641.06,-0.12222
1641.07,-0.12257
1641.08,-0.12302
1641.09,-0.12181
1641.1,-0.12274
1641.11,-0.12242
1641.12,-0.12198
1641.13,-0.12194
1641.14,-0.12193
1641.15,-0.12197
1641.16,-0.12259
1641.17,-0.12313
1641.18,-0.12399
1641.19,-0.12459
1641.2,-0.1261
1641.21,-0.12622
1641.22,-0.12609
1641.23,-0.12583
1641.24,-0.1256
1641.25,-0.12471
1641.26,-0.12401
1641.27,-0.12226
1641.28,-0.1226
1641.29,-0.12144
1641.3,-0.12062
1641.31,-0.11993
1641.32,-0.11924
1641.33,-0.11895
1641.34,-0.11888
1641.35,-0.11886
1641.36,-0.11899
1641.37,-0.11894
1641.38,-0.11903
1641.39,-0.11922
1641.4,-0.12008
1641.41,-0.12034
1641.42,-0.12071
1641.43,-0.12144
1641.44,-0.12154
1641.45,-0.12226
1641.46,-0.12358
1641.47,-0.12409
1641.48,-0.12438
1641.49,-0.12504
1641.5,-0.12563
1641.51,-0.12573
1641.52,-0.12693
1641.53,-0.12677
1641.54,-0.12637
1641.55,-0.12656
1641.56,-0.12579
1641.57,-0.12536
1641.58,-0.12391
1641.59,-0.12337
1641.6,-0.12163
1641.61,-0.12104
1641.62,-0.11982
1641.63,-0.11923
1641.64,-0.11881
1641.65,-0.11815
1641.66,-0.11802
1641.67,-0.11808
1641.68,-0.11755
1641.69,-0.11764
1641.7,-0.11748
1641.71,-0.11764
1641.72,-0.11796
1641.73,-0.11883
1641.74,-0.11836
1641.75,-0.11936
1641.76,-0.12069
1641.77,-0.11959
1641.78,-0.12113
1641.79,-0.12244
1641.8,-0.12416
1641.81,-0.12553
1641.82,-0.12683
1641.83,-0.12792
1641.84,-0.12831
1641.85,-0.12844
1641.86,-0.12703
1641.87,-0.12577
1641.88,-0.12484
1641.89,-0.12306
1641.9,-0.12166
1641.91,-0.12024
1641.92,-0.11945
1641.93,-0.12015
1641.94,-0.11884
1641.95,-0.11919
1641.96,-0.11897
1641.97,-0.11879
1641.98,-0.11851
1641.99,-0.11859
1642,-0.11892
1642.01,-0.11892
1642.02,-0.12044
1642.03,-0.12156
1642.04,-0.12276
1642.05,-0.12457
1642.06,-0.12445
1642.07,-0.12783
1642.08,-0.1259
1642.09,-0.1248
1642.1,-0.12565
1642.11,-0.12244
1642.12,-0.12219
1642.13,-0.12141
1642.14,-0.12069
1642.15,-0.12001
1642.16,-0.11937
1642.17,-0.11882
1642.18,-0.11968
1642.19,-0.11883
1642.2,-0.1193
1642.21,-0.11922
1642.22,-0.12007
1642.23,-0.11983
1642.24,-0.12145
1642.25,-0.1219
1642.26,-0.12302
1642.27,-0.12211
1642.28,-0.124
1642.29,-0.12323
1642.3,-0.12249
1642.31,-0.12228
1642.32,-0.12157
1642.33,-0.12169
1642.34,-0.12176
1642.35,-0.12205
1642.36,-0.12272
1642.37,-0.12314
1642.38,-0.12359
1642.39,-0.12291
1642.4,-0.12284
1642.41,-0.12251
1642.42,-0.12184
1642.43,-0.12191
1642.44,-0.12037
1642.45,-0.12069
1642.46,-0.12085
1642.47,-0.12062
1642.48,-0.12078
1642.49,-0.12088
1642.5,-0.12058
1642.51,-0.12015
1642.52,-0.12069
1642.53,-0.1208
1642.54,-0.11976
1642.55,-0.11991
1642.56,-0.11944
1642.57,-0.11955
1642.58,-0.11957
1642.59,-0.11913
1642.6,-0.11898
1642.61,-0.11946
1642.62,-0.11914
1642.63,-0.11939
1642.64,-0.11959
1642.65,-0.12001
1642.66,-0.11948
1642.67,-0.11957
1642.68,-0.11938
1642.69,-0.11946
1642.7,-0.12019
1642.71,-0.11983
1642.72,-0.12061
1642.73,-0.12184
1642.74,-0.12091
1642.75,-0.12212
1642.76,-0.12178
1642.77,-0.12153
1642.78,-0.12095
1642.79,-0.11999
1642.8,-0.12024
1642.81,-0.11965
1642.82,-0.11991
1642.83,-0.12075
1642.84,-0.12204
1642.85,-0.12402
1642.86,-0.12474
1642.87,-0.12275
1642.88,-0.12718
1642.89,-0.17657
1642.9,-0.31286
1642.91,-0.62462
1642.92,-1.13226
1642.93,-1.77895
1642.94,-2.55358
1642.95,-3.30931
1642.96,-3.94134
1642.97,-4.41936
1642.98,-4.72934
1642.99,-4.79734
1643,-4.63738
1643.01,-4.25214
1643.02,-3.69725
1643.03,-2.96544
1643.04,-2.22004
1643.05,-1.54034
1643.06,-0.96877
1643.07,-0.57397
1643.08,-0.34463
1643.09,-0.20913
1643.1,-0.15747
1643.11,-0.13548
1643.12,-0.12666
1643.13,-0.12382
1643.14,-0.12313
1643.15,-0.1219
1643.16,-0.12142
1643.17,-0.12064
1643.18,-0.12092
1643.19,-0.12097
1643.2,-0.12083
1643.21,-0.12093
1643.22,-0.12145
1643.23,-0.12102
1643.24,-0.12059
1643.25,-0.12343
1643.26,-0.1216
1643.27,-0.12272
1643.28,-0.12324
1643.29,-0.12246
1643.3,-0.12251
1643.31,-0.1225
1643.32,-0.12155
1643.33,-0.12221
1643.34,-0.12141
1643.35,-0.12069
1643.36,-0.12091
1643.37,-0.12104
1643.38,-0.12089
1643.39,-0.12038
1643.4,-0.12093
1643.41,-0.12143
1643.42,-0.12148
1643.43,-0.12187
1643.44,-0.1213
1643.45,-0.12296
1643.46,-0.12296
1643.47,-0.12378
1643.48,-0.1249
1643.49,-0.12333
1643.5,-0.1257
1643.51,-0.12596
1643.52,-0.12555
1643.53,-0.12533
1643.54,-0.12413
1643.55,-0.12395
1643.56,-0.12308
1643.57,-0.12231
1643.58,-0.1219
1643.59,-0.12145
1643.6,-0.12138
1643.61,-0.12063
1643.62,-0.12038
1643.63,-0.12072
1643.64,-0.12148
1643.65,-0.12119
1643.66,-0.12069
1643.67,-0.12078
1643.68,-0.12108
1643.69,-0.12104
1643.7,-0.12139
1643.71,-0.12175
1643.72,-0.12189
1643.73,-0.12391
1643.74,-0.12361
1643.75,-0.12371
1643.76,-0.12478
1643.77,-0.12487
1643.78,-0.12486
1643.79,-0.12448
1643.8,-0.12427
1643.81,-0.1242
1643.82,-0.12362
1643.83,-0.12404
1643.84,-0.1242
1643.85,-0.12487
1643.86,-0.12529
1643.87,-0.12652
1643.88,-0.12692
1643.89,-0.12716
1643.9,-0.12747
1643.91,-0.12787
1643.92,-0.12714
1643.93,-0.12721
1643.94,-0.1261
1643.95,-0.12574
1643.96,-0.12488
1643.97,-0.12436
1643.98,-0.12383
1643.99,-0.12294
1644,-0.12251
1644.01,-0.12189
1644.02,-0.12194
1644.03,-0.12189
1644.04,-0.12176
1644.05,-0.12187
1644.06,-0.12231
1644.07,-0.12247
1644.08,-0.12276
1644.09,-0.12302
1644.1,-0.12312
1644.11,-0.12345
1644.12,-0.12451
1644.13,-0.1246
1644.14,-0.12526
1644.15,-0.12592
1644.16,-0.12653
1644.17,-0.12721
1644.18,-0.12728
1644.19,-0.12814
1644.2,-0.12841
1644.21,-0.12896
1644.22,-0.12882
1644.23,-0.12897
1644.24,-0.12918
1644.25,-0.12833
1644.26,-0.12841
1644.27,-0.12631
1644.28,-0.12642
1644.29,-0.12483
1644.3,-0.12388
1644.31,-0.12382
1644.32,-0.12283
1644.33,-0.12254
1644.34,-0.12215
1644.35,-0.12196
1644.36,-0.12152
1644.37,-0.12164
1644.38,-0.12193
1644.39,-0.12152
1644.4,-0.12219
1644.41,-0.12216
1644.42,-0.12237
1644.43,-0.1228
1644.44,-0.12263
1644.45,-0.12338
1644.46,-0.12374
1644.47,-0.12427
1644.48,-0.12514
1644.49,-0.12666
1644.5,-0.12777
1644.51,-0.12997
1644.52,-0.13013
1644.53,-0.13066
1644.54,-0.13089
1644.55,-0.12973
1644.56,-0.12918
1644.57,-0.12796
1644.58,-0.12599
1644.59,-0.12565
1644.6,-0.12412
1644.61,-0.12396
1644.62,-0.12327
1644.63,-0.12315
1644.64,-0.12282
1644.65,-0.12291
1644.66,-0.1227
1644.67,-0.12247
1644.68,-0.12276
1644.69,-0.12257
1644.7,-0.12308
1644.71,-0.12368
1644.72,-0.12442
1644.73,-0.12555
1644.74,-0.12734
1644.75,-0.12801
1644.76,-0.12827
1644.77,-0.12877
1644.78,-0.12863
1644.79,-0.12727
1644.8,-0.1262
1644.81,-0.12577
1644.82,-0.1246
1644.83,-0.12412
1644.84,-0.1236
1644.85,-0.1231
1644.86,-0.12258
1644.87,-0.12351
1644.88,-0.12303
1644.89,-0.12316
1644.9,-0.12338
1644.91,-0.12375
1644.92,-0.12275
1644.93,-0.12445
1644.94,-0.12443
1644.95,-0.12511
1644.96,-0.12545
1644.97,-0.12642
1644.98,-0.12566
1644.99,-0.12616
1645,-0.12523
1645.01,-0.125
1645.02,-0.12449
1645.03,-0.12444
1645.04,-0.12426
1645.05,-0.12591
1645.06,-0.12443
1645.07,-0.12687
1645.08,-0.12503
1645.09,-0.12558
1645.1,-0.12495
1645.11,-0.12472
1645.12,-0.12425
1645.13,-0.12399
1645.14,-0.12406
1645.15,-0.12411
1645.16,-0.12385
1645.17,-0.1244
1645.18,-0.12389
1645.19,-0.12441
1645.2,-0.12425
1645.21,-0.12409
1645.22,-0.12441
1645.23,-0.12438
1645.24,-0.12276
1645.25,-0.12353
1645.26,-0.12426
1645.27,-0.12343
1645.28,-0.1231
1645.29,-0.12322
1645.3,-0.12278
1645.31,-0.12291
1645.32,-0.12306
1645.33,-0.12331
1645.34,-0.12285
1645.35,-0.12264
1645.36,-0.12344
1645.37,-0.12402
1645.38,-0.12472
1645.39,-0.12554
1645.4,-0.12528
1645.41,-0.12513
1645.42,-0.12455
1645.43,-0.12459
1645.44,-0.1251
1645.45,-0.12532
1645.46,-0.12582
1645.47,-0.12718
1645.48,-0.12945
1645.49,-0.12877
1645.5,-0.12777
1645.51,-0.14295
1645.52,-0.22013
1645.53,-0.44995
1645.54,-0.91124
1645.55,-1.61158
1645.56,-2.49596
1645.57,-3.47566
1645.58,-4.41998
1645.59,-5.22092
1645.6,-5.80309
1645.61,-6.15166
1645.62,-6.24087
1645.63,-6.06014
1645.64,-5.57676
1645.65,-4.88338
1645.66,-4.01359
1645.67,-3.10415
1645.68,-2.21618
1645.69,-1.44479
1645.7,-0.8913
1645.71,-0.52512
1645.72,-0.30245
1645.73,-0.1973
1645.74,-0.15304
1645.75,-0.13797
1645.76,-0.13103
1645.77,-0.12899
1645.78,-0.12892
1645.79,-0.12716
1645.8,-0.12588
1645.81,-0.12502
1645.82,-0.12484
1645.83,-0.12448
1645.84,-0.12438
1645.85,-0.12435
1645.86,-0.12434
1645.87,-0.12446
1645.88,-0.12463
1645.89,-0.12442
1645.9,-0.12481
1645.91,-0.12411
1645.92,-0.12364
1645.93,-0.12391
1645.94,-0.12479
1645.95,-0.12526
1645.96,-0.12545
1645.97,-0.12559
1645.98,-0.12536
1645.99,-0.12571
1646,-0.1265
1646.01,-0.12549
1646.02,-0.12471
1646.03,-0.12491
1646.04,-0.12408
1646.05,-0.12406
1646.06,-0.12432
1646.07,-0.12392
1646.08,-0.12374
1646.09,-0.12411
1646.1,-0.12408
1646.11,-0.12409
1646.12,-0.12434
1646.13,-0.12385
1646.14,-0.12514
1646.15,-0.12427
1646.16,-0.12606
1646.17,-0.12603
1646.18,-0.12689
1646.19,-0.12798
1646.2,-0.12831
1646.21,-0.12866
1646.22,-0.12808
1646.23,-0.12953
1646.24,-0.12743
1646.25,-0.12705
1646.26,-0.12613
1646.27,-0.12518
1646.28,-0.12471
1646.29,-0.12422
1646.3,-0.12337
1646.31,-0.12342
1646.32,-0.12296
1646.33,-0.12366
1646.34,-0.12282
1646.35,-0.12281
1646.36,-0.12253
1646.37,-0.12246
1646.38,-0.1233
1646.39,-0.12279
1646.4,-0.12304
1646.41,-0.12372
1646.42,-0.12379
1646.43,-0.12469
1646.44,-0.1248
1646.45,-0.1255
1646.46,-0.12601
1646.47,-0.12596
1646.48,-0.12595
1646.49,-0.12625
1646.5,-0.12565
1646.51,-0.12565
1646.52,-0.12602
1646.53,-0.12573
1646.54,-0.12577
1646.55,-0.12645
1646.56,-0.12663
1646.57,-0.12766
1646.58,-0.12856
1646.59,-0.12906
1646.6,-0.12941
1646.61,-0.13077
1646.62,-0.13052
1646.63,-0.12986
1646.64,-0.12971
1646.65,-0.12861
1646.66,-0.12774
1646.67,-0.12723
1646.68,-0.12601
1646.69,-0.12477
1646.7,-0.12469
1646.71,-0.1237
1646.72,-0.12342
1646.73,-0.12307
1646.74,-0.12261
1646.75,-0.12292
1646.76,-0.12291
1646.77,-0.12383
1646.78,-0.12372
1646.79,-0.12356
1646.8,-0.12358
1646.81,-0.12396
1646.82,-0.12378
1646.83,-0.12501
1646.84,-0.12618
1646.85,-0.12606
1646.86,-0.12733
1646.87,-0.12819
1646.88,-0.12889
1646.89,-0.12972
1646.9,-0.13019
1646.91,-0.13032
1646.92,-0.13047
1646.93,-0.13108
1646.94,-0.13095
1646.95,-0.13082
1646.96,-0.13059
1646.97,-0.13035
1646.98,-0.12854
1646.99,-0.12735
1647,-0.12631
1647.01,-0.12555
1647.02,-0.12481
1647.03,-0.12367
1647.04,-0.12341
1647.05,-0.12298
1647.06,-0.12273
1647.07,-0.12269
1647.08,-0.12211
1647.09,-0.12263
1647.1,-0.12277
1647.11,-0.12253
1647.12,-0.12325
1647.13,-0.12322
1647.14,-0.12279
1647.15,-0.12376
1647.16,-0.12333
1647.17,-0.12413
1647.18,-0.12555
1647.19,-0.1264
1647.2,-0.12789
1647.21,-0.12943
1647.22,-0.13082
1647.23,-0.13184
1647.24,-0.13202
1647.25,-0.13159
1647.26,-0.13134
1647.27,-0.13012
1647.28,-0.12943
1647.29,-0.12805
1647.3,-0.12728
1647.31,-0.12661
1647.32,-0.12585
1647.33,-0.12453
1647.34,-0.1246
1647.35,-0.1247
1647.36,-0.12376
1647.37,-0.12418
1647.38,-0.12337
1647.39,-0.12333
1647.4,-0.12383
1647.41,-0.124
1647.42,-0.12488
1647.43,-0.12585
1647.44,-0.12723
1647.45,-0.1281
1647.46,-0.12916
1647.47,-0.12929
1647.48,-0.12944
1647.49,-0.1292
1647.5,-0.12836
1647.51,-0.12738
1647.52,-0.12648
1647.53,-0.12576
1647.54,-0.12471
1647.55,-0.12453
1647.56,-0.12349
1647.57,-0.12392
1647.58,-0.12416
1647.59,-0.12328
1647.6,-0.12366
1647.61,-0.12381
1647.62,-0.12373
1647.63,-0.12453
1647.64,-0.12496
1647.65,-0.12585
1647.66,-0.12644
1647.67,-0.12725
1647.68,-0.12731
1647.69,-0.12684
1647.7,-0.1267
1647.71,-0.12549
1647.72,-0.12575
1647.73,-0.1258
1647.74,-0.12483
1647.75,-0.12578
1647.76,-0.1258
1647.77,-0.12646
1647.78,-0.1265
1647.79,-0.12608
1647.8,-0.12654
1647.81,-0.12576
1647.82,-0.12487
1647.83,-0.12443
1647.84,-0.12358
1647.85,-0.124
1647.86,-0.12365
1647.87,-0.12402
1647.88,-0.12436
1647.89,-0.12447
1647.9,-0.12532
1647.91,-0.12513
1647.92,-0.12496
1647.93,-0.12491
1647.94,-0.12502
1647.95,-0.12489
1647.96,-0.12495
1647.97,-0.12485
1647.98,-0.12481
1647.99,-0.12501
1648,-0.12493
1648.01,-0.12538
1648.02,-0.12398
1648.03,-0.12468
1648.04,-0.12359
1648.05,-0.12398
1648.06,-0.12432
1648.07,-0.12482
1648.08,-0.12526
1648.09,-0.12502
1648.1,-0.12431
1648.11,-0.12397
1648.12,-0.12457
1648.13,-0.12479
1648.14,-0.12505
1648.15,-0.12502
1648.16,-0.12743
1648.17,-0.12892
1648.18,-0.12879
1648.19,-0.13121
1648.2,-0.14213
1648.21,-0.17972
1648.22,-0.31005
1648.23,-0.58588
1648.24,-1.04111
1648.25,-1.72873
1648.26,-2.53094
1648.27,-3.37125
1648.28,-4.08976
1648.29,-4.60077
1648.3,-4.92086
1648.31,-5.02858
1648.32,-4.86542
1648.33,-4.50819
1648.34,-3.98749
1648.35,-3.31628
1648.36,-2.5764
1648.37,-1.8513
1648.38,-1.15608
1648.39,-0.68395
1648.4,-0.39488
1648.41,-0.24054
1648.42,-0.17431
1648.43,-0.14666
1648.44,-0.13502
1648.45,-0.13088
1648.46,-0.12917
1648.47,-0.12966
1648.48,-0.1289
1648.49,-0.1292
1648.5,-0.12693
1648.51,-0.128
1648.52,-0.12838
1648.53,-0.12735
1648.54,-0.12759
1648.55,-0.12734
1648.56,-0.12673
1648.57,-0.12649
1648.58,-0.12631
1648.59,-0.12595
1648.6,-0.12577
1648.61,-0.12491
1648.62,-0.12493
1648.63,-0.12525
1648.64,-0.12534
1648.65,-0.12467
1648.66,-0.12523
1648.67,-0.12508
1648.68,-0.12565
1648.69,-0.12606
1648.7,-0.12601
1648.71,-0.12606
1648.72,-0.12625
1648.73,-0.12665
1648.74,-0.12747
1648.75,-0.12611
1648.76,-0.12709
1648.77,-0.12678
1648.78,-0.1273
1648.79,-0.12669
1648.8,-0.12682
1648.81,-0.12585
1648.82,-0.12584
1648.83,-0.1253
1648.84,-0.12511
1648.85,-0.12497
1648.86,-0.12532
1648.87,-0.12573
1648.88,-0.12544
1648.89,-0.12574
1648.9,-0.1263
1648.91,-0.12688
1648.92,-0.12713
1648.93,-0.12813
1648.94,-0.12814
1648.95,-0.1296
1648.96,-0.1301
1648.97,-0.13075
1648.98,-0.12977
1648.99,-0.13063
1649,-0.12951
1649.01,-0.12935
1649.02,-0.12812
1649.03,-0.12799
1649.04,-0.12667
1649.05,-0.12664
1649.06,-0.12572
1649.07,-0.12555
1649.08,-0.1252
1649.09,-0.12508
1649.1,-0.12491
1649.11,-0.12516
1649.12,-0.12506
1649.13,-0.12529
1649.14,-0.12499
1649.15,-0.12519
1649.16,-0.12481
1649.17,-0.12529
1649.18,-0.12563
1649.19,-0.12577
1649.2,-0.12694
1649.21,-0.1269
1649.22,-0.12769
1649.23,-0.12822
1649.24,-0.12821
1649.25,-0.12869
1649.26,-0.12872
1649.27,-0.12793
1649.28,-0.12818
1649.29,-0.12781
1649.3,-0.1271
1649.31,-0.12813
1649.32,-0.12797
1649.33,-0.12907
1649.34,-0.1297
1649.35,-0.13057
1649.36,-0.13143
1649.37,-0.13163
1649.38,-0.13174
1649.39,-0.13181
1649.4,-0.13183
1649.41,-0.13126
1649.42,-0.13012
1649.43,-0.12953
1649.44,-0.12884
1649.45,-0.12813
1649.46,-0.12733
1649.47,-0.12705
1649.48,-0.12665
1649.49,-0.12643
1649.5,-0.12483
1649.51,-0.12528
1649.52,-0.12549
1649.53,-0.12526
1649.54,-0.12592
1649.55,-0.12537
1649.56,-0.12633
1649.57,-0.12644
1649.58,-0.12602
1649.59,-0.12702
1649.6,-0.12726
1649.61,-0.12801
1649.62,-0.12827
1649.63,-0.1292
1649.64,-0.12946
1649.65,-0.13053
1649.66,-0.13108
1649.67,-0.13166
1649.68,-0.13206
1649.69,-0.13334
1649.7,-0.13305
1649.71,-0.13289
1649.72,-0.13275
1649.73,-0.13258
1649.74,-0.13175
1649.75,-0.13041
1649.76,-0.1293
1649.77,-0.12858
1649.78,-0.1278
1649.79,-0.12703
1649.8,-0.12624
1649.81,-0.12587
1649.82,-0.12526
1649.83,-0.12512
1649.84,-0.12533
1649.85,-0.12519
1649.86,-0.12474
1649.87,-0.12607
1649.88,-0.12476
1649.89,-0.1252
1649.9,-0.12597
1649.91,-0.12553
1649.92,-0.12598
1649.93,-0.12639
1649.94,-0.12622
1649.95,-0.12669
1649.96,-0.12802
1649.97,-0.12964
1649.98,-0.1293
1649.99,-0.13201
1650,-0.13229
1650.01,-0.13309
1650.02,-0.13344
1650.03,-0.13293
1650.04,-0.13205
1650.05,-0.13059
1650.06,-0.12961
1650.07,-0.12836
1650.08,-0.12782
1650.09,-0.12703
1650.1,-0.1271
1650.11,-0.12632
1650.12,-0.12634
1650.13,-0.12601
1650.14,-0.12667
1650.15,-0.12612
1650.16,-0.12603
1650.17,-0.12577
1650.18,-0.12597
1650.19,-0.12715
1650.2,-0.12802
1650.21,-0.12866
1650.22,-0.129
1650.23,-0.13203
1650.24,-0.1315
1650.25,-0.13187
1650.26,-0.13168
1650.27,-0.13128
1650.28,-0.13037
1650.29,-0.12882
1650.3,-0.12774
1650.31,-0.12689
1650.32,-0.12665
1650.33,-0.12626
1650.34,-0.12585
1650.35,-0.12613
1650.36,-0.12645
1650.37,-0.12603
1650.38,-0.1259
1650.39,-0.12603
1650.4,-0.12596
1650.41,-0.12742
1650.42,-0.12786
1650.43,-0.12835
1650.44,-0.12946
1650.45,-0.12951
1650.46,-0.12962
1650.47,-0.12973
1650.48,-0.129
1650.49,-0.12767
1650.5,-0.12821
1650.51,-0.12731
1650.52,-0.12732
1650.53,-0.12782
1650.54,-0.12816
1650.55,-0.12828
1650.56,-0.12848
1650.57,-0.12795
1650.58,-0.1282
1650.59,-0.12771
1650.6,-0.12716
1650.61,-0.12541
1650.62,-0.12601
1650.63,-0.12589
1650.64,-0.12456
1650.65,-0.12581
1650.66,-0.12556
1650.67,-0.12579
1650.68,-0.12581
1650.69,-0.12613
1650.7,-0.12614
1650.71,-0.12642
1650.72,-0.12588
1650.73,-0.1258
1650.74,-0.1261
1650.75,-0.12583
1650.76,-0.12616
1650.77,-0.12748
1650.78,-0.12766
1650.79,-0.12775
1650.8,-0.12763
1650.81,-0.12689
1650.82,-0.12664
1650.83,-0.12673
1650.84,-0.12473
1650.85,-0.12602
1650.86,-0.12632
1650.87,-0.12825
1650.88,-0.12955
1650.89,-0.13104
1650.9,-0.13096
1650.91,-0.13885
1650.92,-0.18745
1650.93,-0.32407
1650.94,-0.59345
1650.95,-1.11811
1650.96,-1.82719
1650.97,-2.65623
1650.98,-3.52717
1650.99,-4.28292
1651,-4.88094
1651.01,-5.26462
1651.02,-5.38749
1651.03,-5.262
1651.04,-4.90453
1651.05,-4.33203
1651.06,-3.61365
1651.07,-2.83049
1651.08,-2.06409
1651.09,-1.38621
1651.1,-0.83787
1651.11,-0.51116
1651.12,-0.30637
1651.13,-0.19823
1651.14,-0.1548
1651.15,-0.13543
1651.16,-0.13081
1651.17,-0.12905
1651.18,-0.12773
1651.19,-0.12765
1651.2,-0.12624
1651.21,-0.12624
1651.22,-0.1261
1651.23,-0.12584
1651.24,-0.12644
1651.25,-0.1269
1651.26,-0.12679
1651.27,-0.12731
1651.28,-0.12707
1651.29,-0.12719
1651.3,-0.12734
1651.31,-0.12739
1651.32,-0.12758
1651.33,-0.12773
1651.34,-0.12729
1651.35,-0.12759
1651.36,-0.1285
1651.37,-0.12738
1651.38,-0.12754
1651.39,-0.12726
1651.4,-0.12666
1651.41,-0.12689
1651.42,-0.12649
1651.43,-0.12664
1651.44,-0.12652
1651.45,-0.12615
1651.46,-0.12726
1651.47,-0.12708
1651.48,-0.12754
1651.49,-0.12712
1651.5,-0.12698
1651.51,-0.1263
1651.52,-0.12664
1651.53,-0.1268
1651.54,-0.12687
1651.55,-0.1267
1651.56,-0.12715
1651.57,-0.12695
1651.58,-0.12815
1651.59,-0.12807
1651.6,-0.12769
1651.61,-0.12747
1651.62,-0.12763
1651.63,-0.12715
1651.64,-0.12795
1651.65,-0.12699
1651.66,-0.12781
1651.67,-0.12755
1651.68,-0.12741
1651.69,-0.12749
1651.7,-0.12725
1651.71,-0.12811
1651.72,-0.12716
1651.73,-0.12751
1651.74,-0.12744
1651.75,-0.12757
1651.76,-0.12802
1651.77,-0.12902
1651.78,-0.12902
1651.79,-0.12923
1651.8,-0.12976
1651.81,-0.12966
1651.82,-0.1297
1651.83,-0.12989
1651.84,-0.12885
1651.85,-0.12904
1651.86,-0.12736
1651.87,-0.12849
1651.88,-0.12751
1651.89,-0.12762
1651.9,-0.12776
1651.91,-0.12776
1651.92,-0.12734
1651.93,-0.12747
1651.94,-0.12745
1651.95,-0.12679
1651.96,-0.1267
1651.97,-0.12692
1651.98,-0.12662
1651.99,-0.12789
1652,-0.1263
1652.01,-0.12691
1652.02,-0.12741
1652.03,-0.12782
1652.04,-0.12754
1652.05,-0.12797
1652.06,-0.12748
1652.07,-0.12735
1652.08,-0.1273
1652.09,-0.12779
1652.1,-0.12769
1652.11,-0.12912
1652.12,-0.12728
1652.13,-0.12817
1652.14,-0.12794
1652.15,-0.12779
1652.16,-0.12828
1652.17,-0.12792
1652.18,-0.12872
1652.19,-0.12864
1652.2,-0.129
1652.21,-0.12941
1652.22,-0.12977
1652.23,-0.1301
1652.24,-0.12928
1652.25,-0.12993
1652.26,-0.12815
1652.27,-0.12872
1652.28,-0.12817
1652.29,-0.12686
1652.3,-0.12723
1652.31,-0.12676
1652.32,-0.12662
1652.33,-0.1265
1652.34,-0.12658
1652.35,-0.12671
1652.36,-0.12658
1652.37,-0.12704
1652.38,-0.12756
1652.39,-0.12679
1652.4,-0.12671
1652.41,-0.12627
1652.42,-0.12679
1652.43,-0.12609
1652.44,-0.12777
1652.45,-0.12801
1652.46,-0.12818
1652.47,-0.12915
1652.48,-0.12898
1652.49,-0.12911
1652.5,-0.12956
1652.51,-0.12911
1652.52,-0.12893
1652.53,-0.13032
1652.54,-0.12958
1652.55,-0.13024
1652.56,-0.1302
1652.57,-0.12977
1652.58,-0.13007
1652.59,-0.12958
1652.6,-0.12944
1652.61,-0.12828
1652.62,-0.12818
1652.63,-0.12743
1652.64,-0.12837
1652.65,-0.1269
1652.66,-0.12707
1652.67,-0.12757
1652.68,-0.12744
1652.69,-0.128
1652.7,-0.12728
1652.71,-0.12736
1652.72,-0.1273
1652.73,-0.12721
1652.74,-0.12811
1652.75,-0.12631
1652.76,-0.12747
1652.77,-0.12778
1652.78,-0.12786
1652.79,-0.12854
1652.8,-0.12893
1652.81,-0.12996
1652.82,-0.13012
1652.83,-0.13089
1652.84,-0.13141
1652.85,-0.13119
1652.86,-0.131
1652.87,-0.13102
1652.88,-0.13092
1652.89,-0.12988
1652.9,-0.12997
1652.91,-0.12993
1652.92,-0.12959
1652.93,-0.12933
1652.94,-0.12926
1652.95,-0.12874
1652.96,-0.12842
1652.97,-0.12797
1652.98,-0.12857
1652.99,-0.12837
1653,-0.12834
1653.01,-0.12816
1653.02,-0.12984
1653.03,-0.12869
1653.04,-0.12947
1653.05,-0.13011
1653.06,-0.13028
1653.07,-0.13102
1653.08,-0.13112
1653.09,-0.13079
1653.1,-0.13209
1653.11,-0.13053
1653.12,-0.13088
1653.13,-0.13037
1653.14,-0.13026
1653.15,-0.13005
1653.16,-0.12998
1653.17,-0.1293
1653.18,-0.12901
1653.19,-0.1294
1653.2,-0.12813
1653.21,-0.12872
1653.22,-0.12868
1653.23,-0.12845
1653.24,-0.12845
1653.25,-0.12923
1653.26,-0.13
1653.27,-0.13018
1653.28,-0.12995
1653.29,-0.1301
1653.3,-0.12992
1653.31,-0.13033
1653.32,-0.13023
1653.33,-0.12991
1653.34,-0.12954
1653.35,-0.12965
1653.36,-0.12966
1653.37,-0.12986
1653.38,-0.13007
1653.39,-0.12963
1653.4,-0.13043
1653.41,-0.13025
1653.42,-0.12929
1653.43,-0.13054
1653.44,-0.12907
1653.45,-0.1295
1653.46,-0.12925
1653.47,-0.12918
1653.48,-0.12924
1653.49,-0.12897
1653.5,-0.12871
1653.51,-0.12863
1653.52,-0.12877
1653.53,-0.12897
1653.54,-0.12946
1653.55,-0.12987
1653.56,-0.13033
1653.57,-0.13011
1653.58,-0.13017
1653.59,-0.12977
1653.6,-0.13017
1653.61,-0.12996
1653.62,-0.13045
1653.63,-0.13027
1653.64,-0.13137
1653.65,-0.13397
1653.66,-0.13519
1653.67,-0.13433
1653.68,-0.13643
1653.69,-0.15916
1653.7,-0.24393
1653.71,-0.46355
1653.72,-0.84293
1653.73,-1.40044
1653.74,-2.17326
1653.75,-2.92594
1653.76,-3.68786
1653.77,-4.29771
1653.78,-4.70512
1653.79,-4.89848
1653.8,-4.84807
1653.81,-4.5816
1653.82,-4.09923
1653.83,-3.45757
1653.84,-2.76055
1653.85,-2.04237
1653.86,-1.38248
1653.87,-0.86826
1653.88,-0.51177
1653.89,-0.30481
1653.9,-0.20597
1653.91,-0.15683
1653.92,-0.14171
1653.93,-0.13447
1653.94,-0.13282
1653.95,-0.13138
1653.96,-0.13057
1653.97,-0.13008
1653.98,-0.12997
1653.99,-0.12961
1654,-0.12997
1654.01,-0.13017
1654.02,-0.12987
1654.03,-0.13013
1654.04,-0.13022
1654.05,-0.12984
1654.06,-0.13084
1654.07,-0.12995
1654.08,-0.13024
1654.09,-0.12984
1654.1,-0.13023
1654.11,-0.13025
1654.12,-0.13035
1654.13,-0.13102
1654.14,-0.1305
1654.15,-0.1312
1654.16,-0.13091
1654.17,-0.13103
1654.18,-0.13095
1654.19,-0.12997
1654.2,-0.13024
1654.21,-0.13012
1654.22,-0.13061
1654.23,-0.13053
1654.24,-0.12954
1654.25,-0.13079
1654.26,-0.13047
1654.27,-0.13017
1654.28,-0.1306
1654.29,-0.13093
1654.3,-0.12997
1654.31,-0.12988
1654.32,-0.13008
1654.33,-0.13033
1654.34,-0.13043
1654.35,-0.13018
1654.36,-0.13046
1654.37,-0.13075
1654.38,-0.13057
1654.39,-0.13073
1654.4,-0.13041
1654.41,-0.13022
1654.42,-0.1302
1654.43,-0.13024
1654.44,-0.1304
1654.45,-0.13077
1654.46,-0.13052
1654.47,-0.13075
1654.48,-0.13058
1654.49,-0.13013
1654.5,-0.13069
1654.51,-0.13021
1654.52,-0.13048
1654.53,-0.12999
1654.54,-0.13021
1654.55,-0.13035
1654.56,-0.13016
1654.57,-0.1302
1654.58,-0.13067
1654.59,-0.13053
1654.6,-0.13088
1654.61,-0.13153
1654.62,-0.13101
1654.63,-0.13136
1654.64,-0.13114
1654.65,-0.13122
1654.66,-0.13116
1654.67,-0.13093
1654.68,-0.13152
1654.69,-0.1316
1654.7,-0.13128
1654.71,-0.1308
1654.72,-0.1316
1654.73,-0.13051
1654.74,-0.13092
1654.75,-0.13003
1654.76,-0.13071
1654.77,-0.13025
1654.78,-0.12983
1654.79,-0.13
1654.8,-0.13009
1654.81,-0.13026
1654.82,-0.13054
1654.83,-0.13016
1654.84,-0.13055
1654.85,-0.13073
1654.86,-0.12994
1654.87,-0.13024
1654.88,-0.13013
1654.89,-0.13049
1654.9,-0.13075
1654.91,-0.13052
1654.92,-0.13133
1654.93,-0.13098
1654.94,-0.1311
1654.95,-0.13116
1654.96,-0.13104
1654.97,-0.13083
1654.98,-0.13082
1654.99,-0.13019
1655,-0.13138
1655.01,-0.13065
1655.02,-0.13136
1655.03,-0.13131
1655.04,-0.13193
1655.05,-0.13203
1655.06,-0.13219
1655.07,-0.13208
1655.08,-0.13171
1655.09,-0.13193
1655.1,-0.13146
1655.11,-0.13161
1655.12,-0.13086
1655.13,-0.13107
1655.14,-0.1311
1655.15,-0.13121
1655.16,-0.13083
1655.17,-0.1312
1655.18,-0.13053
1655.19,-0.13098
1655.2,-0.12992
1655.21,-0.13041
1655.22,-0.13033
1655.23,-0.12987
1655.24,-0.13079
1655.25,-0.13019
1655.26,-0.13086
1655.27,-0.13099
1655.28,-0.1309
1655.29,-0.13104
1655.3,-0.13148
1655.31,-0.13068
1655.32,-0.13131
1655.33,-0.1312
1655.34,-0.13198
1655.35,-0.13125
1655.36,-0.13198
1655.37,-0.13227
1655.38,-0.13248
1655.39,-0.13229
1655.4,-0.13282
1655.41,-0.13207
1655.42,-0.13229
1655.43,-0.13125
1655.44,-0.13178
1655.45,-0.13151
1655.46,-0.13125
1655.47,-0.13077
1655.48,-0.13119
1655.49,-0.13062
1655.5,-0.13125
1655.51,-0.13105
1655.52,-0.13073
1655.53,-0.13052
1655.54,-0.13025
1655.55,-0.13022
1655.56,-0.12923
1655.57,-0.1311
1655.58,-0.13051
1655.59,-0.13082
1655.6,-0.12998
1655.61,-0.13083
1655.62,-0.13108
1655.63,-0.13072
1655.64,-0.13082
1655.65,-0.1315
1655.66,-0.13025
1655.67,-0.13134
1655.68,-0.13156
1655.69,-0.13194
1655.7,-0.13252
1655.71,-0.13225
1655.72,-0.13231
1655.73,-0.13299
1655.74,-0.13145
1655.75,-0.13096
1655.76,-0.13167
1655.77,-0.13061
1655.78,-0.13078
1655.79,-0.13077
1655.8,-0.13068
1655.81,-0.12997
1655.82,-0.13127
1655.83,-0.13119
1655.84,-0.1309
1655.85,-0.13114
1655.86,-0.13115
1655.87,-0.13052
1655.88,-0.13053
1655.89,-0.13086
1655.9,-0.13122
1655.91,-0.13125
1655.92,-0.13175
1655.93,-0.13202
1655.94,-0.13243
1655.95,-0.13214
1655.96,-0.1323
1655.97,-0.13175
1655.98,-0.13147
1655.99,-0.13126
1656,-0.13034
1656.01,-0.13119
1656.02,-0.13058
1656.03,-0.13128
1656.04,-0.13109
1656.05,-0.13089
1656.06,-0.13114
1656.07,-0.1309
1656.08,-0.13147
1656.09,-0.13109
1656.1,-0.13068
1656.11,-0.13099
1656.12,-0.13164
1656.13,-0.13165
1656.14,-0.13153
1656.15,-0.13183
1656.16,-0.1323
1656.17,-0.13218
1656.18,-0.13218
1656.19,-0.13162
1656.2,-0.13146
1656.21,-0.13169
1656.22,-0.13144
1656.23,-0.1316
1656.24,-0.13143
1656.25,-0.13137
1656.26,-0.13227
1656.27,-0.13245
1656.28,-0.13214
1656.29,-0.13239
1656.3,-0.13196
1656.31,-0.13183
1656.32,-0.13155
1656.33,-0.13106
1656.34,-0.13134
1656.35,-0.13107
1656.36,-0.13097
1656.37,-0.13098
1656.38,-0.13162
1656.39,-0.1321
1656.4,-0.13218
1656.41,-0.13157
1656.42,-0.13164
1656.43,-0.13158
1656.44,-0.13099
1656.45,-0.1316
1656.46,-0.13185
1656.47,-0.13155
1656.48,-0.13226
1656.49,-0.13261
1656.5,-0.13434
1656.51,-0.13466
1656.52,-0.13396
1656.53,-0.13459
1656.54,-0.14913
1656.55,-0.20381
1656.56,-0.32565
1656.57,-0.52749
1656.58,-0.83927
1656.59,-1.20659
1656.6,-1.58445
1656.61,-1.93193
1656.62,-2.20388
1656.63,-2.36118
1656.64,-2.38198
1656.65,-2.2598
1656.66,-2.01308
1656.67,-1.68028
1656.68,-1.31374
1656.69,-0.96677
1656.7,-0.66647
1656.71,-0.44464
1656.72,-0.29153
1656.73,-0.2053
1656.74,-0.16135
1656.75,-0.14351
1656.76,-0.13591
1656.77,-0.13291
1656.78,-0.13277
1656.79,-0.13265
1656.8,-0.13225
1656.81,-0.1316
1656.82,-0.13228
1656.83,-0.13193
1656.84,-0.13214
1656.85,-0.13172
1656.86,-0.13182
1656.87,-0.13157
1656.88,-0.13163
1656.89,-0.1311
1656.9,-0.13114
1656.91,-0.13188
1656.92,-0.13148
1656.93,-0.13165
1656.94,-0.13183
1656.95,-0.13136
1656.96,-0.13168
1656.97,-0.13106
1656.98,-0.13164
1656.99,-0.13098
1657,-0.13129
1657.01,-0.13128
1657.02,-0.13167
1657.03,-0.13175
1657.04,-0.13233
1657.05,-0.13206
1657.06,-0.13207
1657.07,-0.13294
1657.08,-0.13202
1657.09,-0.132
1657.1,-0.13237
1657.11,-0.13196
1657.12,-0.13227
1657.13,-0.13178
1657.14,-0.1316
1657.15,-0.13206
1657.16,-0.13183
1657.17,-0.13244
1657.18,-0.13203
1657.19,-0.13233
1657.2,-0.13189
1657.21,-0.13125
1657.22,-0.13202
1657.23,-0.13163
1657.24,-0.13196
1657.25,-0.13179
1657.26,-0.13251
1657.27,-0.13196
1657.28,-0.13252
1657.29,-0.13205
1657.3,-0.13311
1657.31,-0.13247
1657.32,-0.13235
1657.33,-0.13241
1657.34,-0.13229
1657.35,-0.13233
1657.36,-0.13294
1657.37,-0.13303
1657.38,-0.13268
1657.39,-0.13334
1657.4,-0.13311
1657.41,-0.13274
1657.42,-0.13321
1657.43,-0.13291
1657.44,-0.13225
1657.45,-0.13268
1657.46,-0.13295
1657.47,-0.13274
1657.48,-0.13292
1657.49,-0.13324
1657.5,-0.13321
1657.51,-0.13379
1657.52,-0.13345
1657.53,-0.13385
1657.54,-0.13424
1657.55,-0.13373
1657.56,-0.13411
1657.57,-0.13412
1657.58,-0.13455
1657.59,-0.13407
1657.6,-0.13434
1657.61,-0.13425
1657.62,-0.13428
1657.63,-0.13421
1657.64,-0.13328
1657.65,-0.13299
1657.66,-0.13278
1657.67,-0.13262
1657.68,-0.13283
1657.69,-0.13323
1657.7,-0.13282
1657.71,-0.13316
1657.72,-0.13346
1657.73,-0.13305
1657.74,-0.13365
1657.75,-0.13354
1657.76,-0.13384
1657.77,-0.13308
1657.78,-0.13322
1657.79,-0.13293
1657.8,-0.13334
1657.81,-0.13336
1657.82,-0.13389
1657.83,-0.13378
1657.84,-0.13384
1657.85,-0.13433
1657.86,-0.13414
1657.87,-0.13389
1657.88,-0.13343
1657.89,-0.13333
1657.9,-0.13317
1657.91,-0.1339
1657.92,-0.13309
1657.93,-0.13396
1657.94,-0.13422
1657.95,-0.13396
1657.96,-0.13516
1657.97,-0.13464
1657.98,-0.13469
1657.99,-0.13488
1658,-0.13433
1658.01,-0.13484
1658.02,-0.13446
1658.03,-0.13474
1658.04,-0.13357
1658.05,-0.13428
1658.06,-0.13368
1658.07,-0.13384
1658.08,-0.13375
1658.09,-0.13312
1658.1,-0.13333
1658.11,-0.13265
1658.12,-0.13317
1658.13,-0.13272
1658.14,-0.13305
1658.15,-0.13324
1658.16,-0.13297
1658.17,-0.13359
1658.18,-0.13357
1658.19,-0.1334
1658.2,-0.13384
1658.21,-0.13317
1658.22,-0.1332
1658.23,-0.13455
1658.24,-0.13391
1658.25,-0.13415
1658.26,-0.13327
1658.27,-0.13496
1658.28,-0.13464
1658.29,-0.13507
1658.3,-0.1353
1658.31,-0.13527
1658.32,-0.13514
1658.33,-0.13419
1658.34,-0.13482
1658.35,-0.13392
1658.36,-0.13413
1658.37,-0.13452
1658.38,-0.13419
1658.39,-0.13418
1658.4,-0.13345
1658.41,-0.13375
1658.42,-0.13357
1658.43,-0.13303
1658.44,-0.13273
1658.45,-0.13269
1658.46,-0.13299
1658.47,-0.13309
1658.48,-0.13338
1658.49,-0.13287
1658.5,-0.13327
1658.51,-0.13317
1658.52,-0.13364
1658.53,-0.13321
1658.54,-0.13396
1658.55,-0.13321
1658.56,-0.13365
1658.57,-0.13362
1658.58,-0.13394
1658.59,-0.13439
1658.6,-0.13488
1658.61,-0.13534
1658.62,-0.13535
1658.63,-0.13595
1658.64,-0.13516
1658.65,-0.13513
1658.66,-0.13476
1658.67,-0.13454
1658.68,-0.13395
1658.69,-0.13423
1658.7,-0.13409
1658.71,-0.13372
1658.72,-0.13361
1658.73,-0.13489
1658.74,-0.13366
1658.75,-0.13372
1658.76,-0.13386
1658.77,-0.1339
1658.78,-0.1332
1658.79,-0.13412
1658.8,-0.13346
1658.81,-0.1341
1658.82,-0.13382
1658.83,-0.13495
1658.84,-0.13529
1658.85,-0.13553
1658.86,-0.13611
1658.87,-0.1357
1658.88,-0.13515
1658.89,-0.13541
1658.9,-0.13506
1658.91,-0.13504
1658.92,-0.135
1658.93,-0.13567
1658.94,-0.13436
1658.95,-0.13436
1658.96,-0.13522
1658.97,-0.13416
1658.98,-0.13483
1658.99,-0.1343
1659,-0.13441
1659.01,-0.13431
1659.02,-0.13445
1659.03,-0.13443
1659.04,-0.13496
1659.05,-0.13496
1659.06,-0.13535
1659.07,-0.13555
1659.08,-0.13457
1659.09,-0.13579
1659.1,-0.13503
1659.11,-0.13504
1659.12,-0.13532
1659.13,-0.1342
1659.14,-0.13586
1659.15,-0.13492
1659.16,-0.13541
1659.17,-0.13538
1659.18,-0.13577
1659.19,-0.13549
1659.2,-0.13529
1659.21,-0.13509
1659.22,-0.13532
1659.23,-0.13482
1659.24,-0.13416
1659.25,-0.13556
1659.26,-0.13484
1659.27,-0.13494
1659.28,-0.13476
1659.29,-0.13463
1659.3,-0.13582
1659.31,-0.1346
1659.32,-0.13516
1659.33,-0.13539
1659.34,-0.13501
1659.35,-0.13571
1659.36,-0.13549
1659.37,-0.1356
1659.38,-0.13554
1659.39,-0.13798
1659.4,-0.15028
1659.41,-0.18802
1659.42,-0.26633
1659.43,-0.38754
1659.44,-0.54472
1659.45,-0.72447
1659.46,-0.91852
1659.47,-1.08119
1659.48,-1.18805
1659.49,-1.22402
1659.5,-1.19237
1659.51,-1.08972
1659.52,-0.92952
1659.53,-0.73783
1659.54,-0.56128
1659.55,-0.41152
1659.56,-0.29756
1659.57,-0.22027
1659.58,-0.17366
1659.59,-0.15144
1659.6,-0.14132
1659.61,-0.13793
1659.62,-0.13563
1659.63,-0.13534
1659.64,-0.13581
1659.65,-0.13463
1659.66,-0.13495
1659.67,-0.13438
1659.68,-0.13464
1659.69,-0.13485
1659.7,-0.13452
1659.71,-0.13497
1659.72,-0.1349
1659.73,-0.13469
1659.74,-0.13512
1659.75,-0.13515
1659.76,-0.13524
1659.77,-0.13516
1659.78,-0.13481
1659.79,-0.13479
1659.8,-0.13458
1659.81,-0.13446
1659.82,-0.13478
1659.83,-0.1348
1659.84,-0.13516
1659.85,-0.13503
1659.86,-0.13557
1659.87,-0.1345
1659.88,-0.1347
1659.89,-0.13469
1659.9,-0.13501
1659.91,-0.13408
1659.92,-0.13499
1659.93,-0.13463
1659.94,-0.13534
1659.95,-0.13392
1659.96,-0.13445
1659.97,-0.13476
1659.98,-0.1356
1659.99,-0.13463
1660,-0.13455
1660.01,-0.1342
1660.02,-0.13459
1660.03,-0.13413
1660.04,-0.13454
1660.05,-0.13479
1660.06,-0.13464
1660.07,-0.1351
1660.08,-0.13444
1660.09,-0.13623
1660.1,-0.13447
1660.11,-0.13463
1660.12,-0.13477
1660.13,-0.13482
1660.14,-0.13491
1660.15,-0.13511
1660.16,-0.13524
1660.17,-0.13405
1660.18,-0.1355
1660.19,-0.135
1660.2,-0.13554
1660.21,-0.13504
1660.22,-0.13468
1660.23,-0.13484
1660.24,-0.13511
1660.25,-0.13441
1660.26,-0.13524
1660.27,-0.13456
1660.28,-0.13489
1660.29,-0.13549
1660.3,-0.1356
1660.31,-0.13532
1660.32,-0.1351
1660.33,-0.13505
1660.34,-0.13478
1660.35,-0.13418
1660.36,-0.13449
1660.37,-0.13542
1660.38,-0.13499
1660.39,-0.13468
1660.4,-0.13653
1660.41,-0.13452
1660.42,-0.13555
1660.43,-0.13492
1660.44,-0.13538
1660.45,-0.1347
1660.46,-0.13471
1660.47,-0.13508
1660.48,-0.13452
1660.49,-0.13493
1660.5,-0.13494
1660.51,-0.13599
1660.52,-0.13474
1660.53,-0.13541
1660.54,-0.13451
1660.55,-0.13572
1660.56,-0.13518
1660.57,-0.13457
1660.58,-0.13486
1660.59,-0.13419
1660.6,-0.13472
1660.61,-0.13476
1660.62,-0.13561
1660.63,-0.13514
1660.64,-0.1356
1660.65,-0.13524
1660.66,-0.13458
1660.67,-0.13411
1660.68,-0.13458
1660.69,-0.13479
1660.7,-0.13394
1660.71,-0.13527
1660.72,-0.13445
1660.73,-0.13535
1660.74,-0.13506
1660.75,-0.13491
1660.76,-0.13519
1660.77,-0.13515
1660.78,-0.13475
1660.79,-0.13449
1660.8,-0.13431
1660.81,-0.13494
1660.82,-0.13479
1660.83,-0.13506
1660.84,-0.13478
1660.85,-0.13478
1660.86,-0.13509
1660.87,-0.13534
1660.88,-0.13497
1660.89,-0.13476
1660.9,-0.13489
1660.91,-0.13455
1660.92,-0.13492
1660.93,-0.13492
1660.94,-0.13496
1660.95,-0.1355
1660.96,-0.13552
1660.97,-0.13516
1660.98,-0.13523
1660.99,-0.13512
1661,-0.13564
1661.01,-0.13487
1661.02,-0.13487
1661.03,-0.13487
1661.04,-0.13534
1661.05,-0.13483
1661.06,-0.13627
1661.07,-0.13521
1661.08,-0.1354
1661.09,-0.13556
1661.1,-0.13566
1661.11,-0.13539
1661.12,-0.13582
1661.13,-0.13514
1661.14,-0.13492
1661.15,-0.13566
1661.16,-0.13527
1661.17,-0.13528
1661.18,-0.13636
1661.19,-0.13572
1661.2,-0.13577
1661.21,-0.13556
1661.22,-0.13511
1661.23,-0.13531
1661.24,-0.13571
1661.25,-0.13525
1661.26,-0.13497
1661.27,-0.13536
1661.28,-0.13547
1661.29,-0.13522
1661.3,-0.13589
1661.31,-0.13556
1661.32,-0.13538
1661.33,-0.13551
1661.34,-0.13527
1661.35,-0.1344
1661.36,-0.13442
1661.37,-0.13478
1661.38,-0.13482
1661.39,-0.13476
1661.4,-0.13515
1661.41,-0.13519
1661.42,-0.13576
1661.43,-0.13454
1661.44,-0.13511
1661.45,-0.13504
1661.46,-0.13455
1661.47,-0.13422
1661.48,-0.13525
1661.49,-0.13424
1661.5,-0.1353
1661.51,-0.13542
1661.52,-0.13423
1661.53,-0.13571
1661.54,-0.13478
1661.55,-0.13422
1661.56,-0.13481
1661.57,-0.13477
1661.58,-0.13411
1661.59,-0.13455
1661.6,-0.13502
1661.61,-0.13406
1661.62,-0.13477
1661.63,-0.13537
1661.64,-0.13415
1661.65,-0.13527
1661.66,-0.13481
1661.67,-0.13488
1661.68,-0.13373
1661.69,-0.13489
1661.7,-0.13467
1661.71,-0.13431
1661.72,-0.13442
1661.73,-0.13502
1661.74,-0.13506
1661.75,-0.13542
1661.76,-0.13478
1661.77,-0.13491
1661.78,-0.13497
1661.79,-0.13496
1661.8,-0.13476
1661.81,-0.13473
1661.82,-0.13408
1661.83,-0.13464
1661.84,-0.13475
1661.85,-0.13473
1661.86,-0.13555
1661.87,-0.13528
1661.88,-0.13462
1661.89,-0.13485
1661.9,-0.13442
1661.91,-0.13445
1661.92,-0.13477
1661.93,-0.13473
1661.94,-0.13441
1661.95,-0.13479
1661.96,-0.13476
1661.97,-0.13561
1661.98,-0.13427
1661.99,-0.1367
1662,-0.13468
1662.01,-0.1342
1662.02,-0.13475
1662.03,-0.13456
1662.04,-0.13499
1662.05,-0.13471
1662.06,-0.13518
1662.07,-0.1351
1662.08,-0.13526
1662.09,-0.13519
1662.1,-0.13486
1662.11,-0.13678
1662.12,-0.13428
1662.13,-0.13497
1662.14,-0.13514
1662.15,-0.13488
1662.16,-0.13535
1662.17,-0.13541
1662.18,-0.13591
1662.19,-0.13524
1662.2,-0.13575
1662.21,-0.13511
1662.22,-0.13573
1662.23,-0.13522
1662.24,-0.13555
1662.25,-0.13496
1662.26,-0.1359
1662.27,-0.13615
1662.28,-0.13711
1662.29,-0.13698
1662.3,-0.13698
1662.31,-0.13843
1662.32,-0.15256
1662.33,-0.18805
1662.34,-0.25959
1662.35,-0.36688
1662.36,-0.51165
1662.37,-0.69978
1662.38,-0.89419
1662.39,-1.07809
1662.4,-1.2128
1662.41,-1.28131
1662.42,-1.26138
1662.43,-1.16472
1662.44,-1.01153
1662.45,-0.81875
1662.46,-0.63061
1662.47,-0.46296
1662.48,-0.33624
1662.49,-0.24593
1662.5,-0.18978
1662.51,-0.15859
1662.52,-0.14478
1662.53,-0.13904
1662.54,-0.13723
1662.55,-0.13627
1662.56,-0.13613
1662.57,-0.13587
1662.58,-0.13594
1662.59,-0.13541
1662.6,-0.13628
1662.61,-0.13611
1662.62,-0.13615
1662.63,-0.13585
1662.64,-0.13649
1662.65,-0.13606
1662.66,-0.13623
1662.67,-0.13589
1662.68,-0.13575
1662.69,-0.13536
1662.7,-0.13568
1662.71,-0.13517
1662.72,-0.13573
1662.73,-0.13646
1662.74,-0.13549
1662.75,-0.13627
1662.76,-0.13575
1662.77,-0.13638
1662.78,-0.13599
1662.79,-0.13592
1662.8,-0.13516
1662.81,-0.13589
1662.82,-0.13495
1662.83,-0.13629
1662.84,-0.13573
1662.85,-0.13612
1662.86,-0.13609
1662.87,-0.13541
1662.88,-0.13684
1662.89,-0.13618
1662.9,-0.13568
1662.91,-0.13541
1662.92,-0.13559
1662.93,-0.1351
1662.94,-0.13577
1662.95,-0.13561
1662.96,-0.13577
1662.97,-0.13554
1662.98,-0.13675
1662.99,-0.13579
1663,-0.13546
1663.01,-0.13582
1663.02,-0.13554
1663.03,-0.13579
1663.04,-0.13491
1663.05,-0.13536
1663.06,-0.13555
1663.07,-0.13517
1663.08,-0.13513
1663.09,-0.13518
1663.1,-0.1355
1663.11,-0.13513
1663.12,-0.13575
1663.13,-0.13496
1663.14,-0.13448
1663.15,-0.13546
1663.16,-0.13574
1663.17,-0.13497
1663.18,-0.13549
1663.19,-0.13528
1663.2,-0.13613
1663.21,-0.13543
1663.22,-0.13606
1663.23,-0.13548
1663.24,-0.13561
1663.25,-0.13534
1663.26,-0.1354
1663.27,-0.13527
1663.28,-0.13606
1663.29,-0.13609
1663.3,-0.13613
1663.31,-0.13623
1663.32,-0.13636
1663.33,-0.13614
1663.34,-0.13659
1663.35,-0.13534
1663.36,-0.13549
1663.37,-0.13591
1663.38,-0.13561
1663.39,-0.13587
1663.4,-0.13626
1663.41,-0.13647
1663.42,-0.13666
1663.43,-0.13627
1663.44,-0.13677
1663.45,-0.136
1663.46,-0.13674
1663.47,-0.1364
1663.48,-0.13627
1663.49,-0.13635
1663.5,-0.13656
1663.51,-0.1364
1663.52,-0.13655
1663.53,-0.13661
1663.54,-0.13718
1663.55,-0.13651
1663.56,-0.13676
1663.57,-0.13674
1663.58,-0.1365
1663.59,-0.13662
1663.6,-0.13654
1663.61,-0.13644
1663.62,-0.13673
1663.63,-0.13728
1663.64,-0.13722
1663.65,-0.13681
1663.66,-0.13751
1663.67,-0.13714
1663.68,-0.1371
1663.69,-0.13708
1663.7,-0.13673
1663.71,-0.1365
1663.72,-0.13745
1663.73,-0.13643
1663.74,-0.13772
1663.75,-0.13682
1663.76,-0.13753
1663.77,-0.13757
1663.78,-0.13695
1663.79,-0.13722
1663.8,-0.13695
1663.81,-0.13662
1663.82,-0.13719
1663.83,-0.13731
1663.84,-0.13678
1663.85,-0.13735
1663.86,-0.13772
1663.87,-0.13695
1663.88,-0.13788
1663.89,-0.13787
1663.9,-0.13714
1663.91,-0.13698
1663.92,-0.13721
1663.93,-0.13711
1663.94,-0.13667
1663.95,-0.13747
1663.96,-0.1371
1663.97,-0.13766
1663.98,-0.13737
1663.99,-0.13746
1664,-0.13682
1664.01,-0.1376
1664.02,-0.13698
1664.03,-0.13717
1664.04,-0.13695
1664.05,-0.13719
1664.06,-0.13705
1664.07,-0.13707
1664.08,-0.1373
1664.09,-0.13743
1664.1,-0.13769
1664.11,-0.13755
1664.12,-0.1377
1664.13,-0.13702
1664.14,-0.13694
1664.15,-0.13677
1664.16,-0.13679
1664.17,-0.13696
1664.18,-0.13697
1664.19,-0.13731
1664.2,-0.13736
1664.21,-0.13745
1664.22,-0.13644
1664.23,-0.13826
1664.24,-0.13673
1664.25,-0.13688
1664.26,-0.13647
1664.27,-0.13665
1664.28,-0.13652
1664.29,-0.137
1664.3,-0.13712
1664.31,-0.13669
1664.32,-0.13794
1664.33,-0.13717
1664.34,-0.13769
1664.35,-0.13756
1664.36,-0.13718
1664.37,-0.13651
1664.38,-0.1369
1664.39,-0.13705
1664.4,-0.13703
1664.41,-0.13691
1664.42,-0.13708
1664.43,-0.13755
1664.44,-0.13796
1664.45,-0.13756
1664.46,-0.13748
1664.47,-0.13745
1664.48,-0.13683
1664.49,-0.13678
1664.5,-0.13746
1664.51,-0.13724
1664.52,-0.13724
1664.53,-0.13782
1664.54,-0.13724
1664.55,-0.13756
1664.56,-0.13809
1664.57,-0.1377
1664.58,-0.13711
1664.59,-0.13762
1664.6,-0.13683
1664.61,-0.13776
1664.62,-0.13759
1664.63,-0.13737
1664.64,-0.13799
1664.65,-0.13774
1664.66,-0.13825
1664.67,-0.13799
1664.68,-0.13793
1664.69,-0.13826
1664.7,-0.13785
1664.71,-0.13766
1664.72,-0.13755
1664.73,-0.1383
1664.74,-0.1379
1664.75,-0.13814
1664.76,-0.1388
1664.77,-0.13849
1664.78,-0.13836
1664.79,-0.13809
1664.8,-0.13817
1664.81,-0.13788
1664.82,-0.13853
1664.83,-0.13816
1664.84,-0.13812
1664.85,-0.13837
1664.86,-0.13751
1664.87,-0.13893
1664.88,-0.13872
1664.89,-0.13902
1664.9,-0.13867
1664.91,-0.13768
1664.92,-0.13801
1664.93,-0.13815
1664.94,-0.13801
1664.95,-0.13799
1664.96,-0.13842
1664.97,-0.13764
1664.98,-0.13797
1664.99,-0.13877
1665,-0.13829
1665.01,-0.13806
1665.02,-0.13816
1665.03,-0.13788
1665.04,-0.13771
1665.05,-0.13835
1665.06,-0.13834
1665.07,-0.13783
1665.08,-0.13792
1665.09,-0.13836
1665.1,-0.13786
1665.11,-0.13826
1665.12,-0.13846
1665.13,-0.13839
1665.14,-0.13781
1665.15,-0.13744
1665.16,-0.13718
1665.17,-0.13767
1665.18,-0.13743
1665.19,-0.13728
1665.2,-0.13734
1665.21,-0.13782
1665.22,-0.13824
1665.23,-0.13886
1665.24,-0.13783
1665.25,-0.13793
1665.26,-0.13642
1665.27,-0.13782
1665.28,-0.13698
1665.29,-0.13758
1665.3,-0.13717
1665.31,-0.13759
1665.32,-0.13761
1665.33,-0.1377
1665.34,-0.13786
1665.35,-0.13734
1665.36,-0.13766
1665.37,-0.1375
1665.38,-0.13701
1665.39,-0.1376
1665.4,-0.13737
1665.41,-0.13749
1665.42,-0.13754
1665.43,-0.13828
1665.44,-0.1378
1665.45,-0.13853
1665.46,-0.13819
1665.47,-0.13785
1665.48,-0.13796
1665.49,-0.13778
1665.5,-0.13819
1665.51,-0.13822
1665.52,-0.13819
1665.53,-0.13776
1665.54,-0.13834
1665.55,-0.13864
1665.56,-0.13818
1665.57,-0.13787
1665.58,-0.1379
1665.59,-0.13725
1665.6,-0.13733
1665.61,-0.13802
1665.62,-0.13732
1665.63,-0.1375
1665.64,-0.13731
1665.65,-0.13767
1665.66,-0.13802
1665.67,-0.13806
1665.68,-0.1375
1665.69,-0.13767
1665.7,-0.13798
1665.71,-0.13735
1665.72,-0.13737
1665.73,-0.13737
1665.74,-0.13814
1665.75,-0.13766
1665.76,-0.13809
1665.77,-0.13799
1665.78,-0.13771
1665.79,-0.13824
1665.8,-0.13792
1665.81,-0.13746
1665.82,-0.13722
1665.83,-0.13716
1665.84,-0.13749
1665.85,-0.13764
1665.86,-0.13722
1665.87,-0.13806
1665.88,-0.13831
1665.89,-0.13787
1665.9,-0.13808
1665.91,-0.13815
1665.92,-0.13784
1665.93,-0.1376
1665.94,-0.13745
1665.95,-0.13754
1665.96,-0.13752
1665.97,-0.13806
1665.98,-0.13799
1665.99,-0.13823
1666,-0.13902
1666.01,-0.13821
1666.02,-0.13853
1666.03,-0.13837
1666.04,-0.13785
1666.05,-0.1381
1666.06,-0.13818
1666.07,-0.13803
1666.08,-0.13874
1666.09,-0.13839
1666.1,-0.13841
1666.11,-0.1386
1666.12,-0.13865
1666.13,-0.13751
1666.14,-0.13792
1666.15,-0.13755
1666.16,-0.13788
1666.17,-0.13695
1666.18,-0.13754
1666.19,-0.13737
1666.2,-0.13705
1666.21,-0.13759
1666.22,-0.13766
1666.23,-0.13708
1666.24,-0.13832
1666.25,-0.13718
1666.26,-0.13726
1666.27,-0.13725
1666.28,-0.13736
1666.29,-0.13781
1666.3,-0.13751
1666.31,-0.13776
1666.32,-0.1378
1666.33,-0.13842
1666.34,-0.13815
1666.35,-0.13806
1666.36,-0.13847
1666.37,-0.13821
1666.38,-0.13753
1666.39,-0.137
1666.4,-0.13773
1666.41,-0.13755
1666.42,-0.13792
1666.43,-0.13785
1666.44,-0.13764
1666.45,-0.13816
1666.46,-0.13786
1666.47,-0.13776
1666.48,-0.13757
1666.49,-0.13768
1666.5,-0.13785
1666.51,-0.1378
1666.52,-0.13766
1666.53,-0.13855
1666.54,-0.13858
1666.55,-0.13928
1666.56,-0.13886
1666.57,-0.13889
1666.58,-0.13895
1666.59,-0.13844
1666.6,-0.1382
1666.61,-0.13787
1666.62,-0.13769
1666.63,-0.13793
1666.64,-0.1375
1666.65,-0.13775
1666.66,-0.13746
1666.67,-0.13765
1666.68,-0.13788
1666.69,-0.13767
1666.7,-0.13739
1666.71,-0.13747
1666.72,-0.13717
1666.73,-0.13736
1666.74,-0.1373
1666.75,-0.13727
1666.76,-0.13824
1666.77,-0.13679
1666.78,-0.13838
1666.79,-0.13813
1666.8,-0.13807
1666.81,-0.13776
1666.82,-0.13789
1666.83,-0.1382
1666.84,-0.13788
1666.85,-0.13833
1666.86,-0.13791
1666.87,-0.13806
1666.88,-0.13814
1666.89,-0.13857
1666.9,-0.13822
1666.91,-0.13832
1666.92,-0.13846
1666.93,-0.13841
1666.94,-0.13818
1666.95,-0.13905
1666.96,-0.13861
1666.97,-0.13903
1666.98,-0.13909
1666.99,-0.13925
1667,-0.13971
1667.01,-0.13909
1667.02,-0.13846
1667.03,-0.13876
1667.04,-0.13826
1667.05,-0.13758
1667.06,-0.13761
1667.07,-0.1371
1667.08,-0.138
1667.09,-0.13751
1667.1,-0.13816
1667.11,-0.13795
1667.12,-0.13773
1667.13,-0.13855
1667.14,-0.13797
1667.15,-0.13796
1667.16,-0.13768
1667.17,-0.13753
1667.18,-0.1379
1667.19,-0.13766
1667.2,-0.13819
1667.21,-0.13859
1667.22,-0.13945
1667.23,-0.1389
1667.24,-0.13886
1667.25,-0.13927
1667.26,-0.13919
1667.27,-0.13914
1667.28,-0.13927
1667.29,-0.13916
1667.3,-0.13993
1667.31,-0.13964
1667.32,-0.13989
1667.33,-0.14042
1667.34,-0.13977
1667.35,-0.13994
1667.36,-0.13928
1667.37,-0.13853
1667.38,-0.13855
1667.39,-0.13751
1667.4,-0.13844
1667.41,-0.13804
1667.42,-0.13795
1667.43,-0.13843
1667.44,-0.13784
1667.45,-0.13858
1667.46,-0.13845
1667.47,-0.13849
1667.48,-0.13788
1667.49,-0.13821
1667.5,-0.13759
1667.51,-0.1382
1667.52,-0.13809
1667.53,-0.13788
1667.54,-0.13844
1667.55,-0.13904
1667.56,-0.13867
1667.57,-0.139
1667.58,-0.13926
1667.59,-0.13973
1667.6,-0.13899
1667.61,-0.13901
1667.62,-0.13906
1667.63,-0.13942
1667.64,-0.13947
1667.65,-0.13979
1667.66,-0.14011
1667.67,-0.13943
1667.68,-0.13966
1667.69,-0.13877
1667.7,-0.13946
1667.71,-0.13785
1667.72,-0.13812
1667.73,-0.13803
1667.74,-0.13754
1667.75,-0.13827
1667.76,-0.1376
1667.77,-0.1384
1667.78,-0.1387
1667.79,-0.13797
1667.8,-0.13828
1667.81,-0.13853
1667.82,-0.13834
1667.83,-0.13861
1667.84,-0.13833
1667.85,-0.1379
1667.86,-0.14053
1667.87,-0.13879
1667.88,-0.13967
1667.89,-0.14024
1667.9,-0.13999
1667.91,-0.13986
1667.92,-0.13918
1667.93,-0.13927
1667.94,-0.13849
1667.95,-0.13876
1667.96,-0.13883
1667.97,-0.13866
1667.98,-0.13821
1667.99,-0.13888
1668,-0.13862
1668.01,-0.13855
1668.02,-0.13941
1668.03,-0.13857
1668.04,-0.13859
1668.05,-0.13856
1668.06,-0.1385
1668.07,-0.13911
1668.08,-0.13882
1668.09,-0.13864
1668.1,-0.14007
1668.11,-0.1383
1668.12,-0.1387
1668.13,-0.14004
1668.14,-0.13915
1668.15,-0.13888
1668.16,-0.13853
1668.17,-0.13929
1668.18,-0.13856
1668.19,-0.13887
1668.2,-0.13911
1668.21,-0.13933
1668.22,-0.13994
1668.23,-0.13901
1668.24,-0.13968
1668.25,-0.1397
1668.26,-0.13946
1668.27,-0.13876
1668.28,-0.13846
1668.29,-0.13849
1668.3,-0.13895
1668.31,-0.13906
1668.32,-0.13777
1668.33,-0.13973
1668.34,-0.13954
1668.35,-0.13954
1668.36,-0.13969
1668.37,-0.13992
1668.38,-0.13919
1668.39,-0.13888
1668.4,-0.13866
1668.41,-0.13909
1668.42,-0.13913
1668.43,-0.13935
1668.44,-0.13937
1668.45,-0.13965
1668.46,-0.13994
1668.47,-0.13959
1668.48,-0.13983
1668.49,-0.13959
1668.5,-0.14023
1668.51,-0.13997
1668.52,-0.13993
1668.53,-0.14061
1668.54,-0.1396
1668.55,-0.14079
1668.56,-0.14154
1668.57,-0.14134
1668.58,-0.14125
1668.59,-0.14205
1668.6,-0.14125
1668.61,-0.1413
1668.62,-0.14076
1668.63,-0.14129
1668.64,-0.1414
1668.65,-0.14095
1668.66,-0.14018
1668.67,-0.14165
1668.68,-0.14134
1668.69,-0.14072
1668.7,-0.14035
1668.71,-0.14049
1668.72,-0.1408
1668.73,-0.13924
1668.74,-0.13916
1668.75,-0.14038
1668.76,-0.14029
1668.77,-0.13977
1668.78,-0.14008
1668.79,-0.1409
1668.8,-0.14022
1668.81,-0.1401
1668.82,-0.13993
1668.83,-0.13934
1668.84,-0.13983
1668.85,-0.13963
1668.86,-0.14
1668.87,-0.13979
1668.88,-0.14029
1668.89,-0.1401
1668.9,-0.14065
1668.91,-0.14085
1668.92,-0.14067
1668.93,-0.13912
1668.94,-0.14074
1668.95,-0.13911
1668.96,-0.1393
1668.97,-0.1397
1668.98,-0.13909
1668.99,-0.13955
1669,-0.13976
1669.01,-0.13981
1669.02,-0.13966
1669.03,-0.13939
1669.04,-0.13981
1669.05,-0.13945
1669.06,-0.13914
1669.07,-0.13922
1669.08,-0.1393
1669.09,-0.13931
1669.1,-0.14001
1669.11,-0.14058
1669.12,-0.14062
1669.13,-0.14075
1669.14,-0.14169
1669.15,-0.141
1669.16,-0.14104
1669.17,-0.1411
1669.18,-0.14114
1669.19,-0.14101
1669.2,-0.14127
1669.21,-0.14084
1669.22,-0.14095
1669.23,-0.14066
1669.24,-0.14105
1669.25,-0.14038
1669.26,-0.14037
1669.27,-0.13985
1669.28,-0.13958
1669.29,-0.13937
1669.3,-0.13991
1669.31,-0.13929
1669.32,-0.13988
1669.33,-0.13967
1669.34,-0.13995
1669.35,-0.13947
1669.36,-0.14085
1669.37,-0.14033
1669.38,-0.14018
1669.39,-0.1399
1669.4,-0.14017
1669.41,-0.13962
1669.42,-0.1402
1669.43,-0.1408
1669.44,-0.14074
1669.45,-0.14071
1669.46,-0.14118
1669.47,-0.14107
1669.48,-0.14112
1669.49,-0.14066
1669.5,-0.14058
1669.51,-0.1403
1669.52,-0.14037
1669.53,-0.14027
1669.54,-0.14055
1669.55,-0.14084
1669.56,-0.14056
1669.57,-0.14072
1669.58,-0.14078
1669.59,-0.14139
1669.6,-0.14081
1669.61,-0.14129
1669.62,-0.14212
1669.63,-0.14191
1669.64,-0.1423
1669.65,-0.14208
1669.66,-0.14325
1669.67,-0.14333
1669.68,-0.14337
1669.69,-0.14351
1669.7,-0.14315
1669.71,-0.14232
1669.72,-0.14177
1669.73,-0.14116
1669.74,-0.14085
1669.75,-0.14008
1669.76,-0.14075
1669.77,-0.14032
1669.78,-0.14049
1669.79,-0.14024
1669.8,-0.14022
1669.81,-0.1406
1669.82,-0.14014
1669.83,-0.13915
1669.84,-0.13994
1669.85,-0.14016
1669.86,-0.13952
1669.87,-0.13976
1669.88,-0.13976
1669.89,-0.14049
1669.9,-0.14024
1669.91,-0.14114
1669.92,-0.14112
1669.93,-0.14094
1669.94,-0.14085
1669.95,-0.14117
1669.96,-0.14036
1669.97,-0.14126
1669.98,-0.14154
1669.99,-0.14061
1670,-0.14069
1670.01,-0.1411
1670.02,-0.14108
1670.03,-0.14138
1670.04,-0.14134
1670.05,-0.14211
1670.06,-0.1419
1670.07,-0.14228
1670.08,-0.14237
1670.09,-0.14293
1670.1,-0.14284
1670.11,-0.14312
1670.12,-0.14217
1670.13,-0.14219
1670.14,-0.14173
1670.15,-0.14133
1670.16,-0.14032
1670.17,-0.13981
1670.18,-0.13894
1670.19,-0.13908
1670.2,-0.13863
1670.21,-0.13905
1670.22,-0.13901
1670.23,-0.13798
1670.24,-0.13969
1670.25,-0.13881
1670.26,-0.13928
1670.27,-0.1388
1670.28,-0.13887
1670.29,-0.13898
1670.3,-0.1384
1670.31,-0.1389
1670.32,-0.13897
1670.33,-0.13911
1670.34,-0.14021
1670.35,-0.14073
1670.36,-0.14079
1670.37,-0.14114
1670.38,-0.14122
1670.39,-0.14113
1670.4,-0.14164
1670.41,-0.14179
1670.42,-0.14179
1670.43,-0.14206
1670.44,-0.14195
1670.45,-0.14199
1670.46,-0.14167
1670.47,-0.14212
1670.48,-0.14072
1670.49,-0.14034
1670.5,-0.13942
1670.51,-0.13859
1670.52,-0.13793
1670.53,-0.13817
1670.54,-0.13803
1670.55,-0.13779
1670.56,-0.13832
1670.57,-0.13848
1670.58,-0.13816
1670.59,-0.13828
1670.6,-0.13808
1670.61,-0.13806
1670.62,-0.13781
1670.63,-0.13811
1670.64,-0.13785
1670.65,-0.138
1670.66,-0.13836
1670.67,-0.13785
1670.68,-0.13911
1670.69,-0.13919
1670.7,-0.14014
1670.71,-0.13996
1670.72,-0.14039
1670.73,-0.14044
1670.74,-0.14142
1670.75,-0.1409
1670.76,-0.141
1670.77,-0.14143
1670.78,-0.14077
1670.79,-0.1406
1670.8,-0.14022
1670.81,-0.13938
1670.82,-0.13991
1670.83,-0.13829
1670.84,-0.13796
1670.85,-0.13774
1670.86,-0.13742
1670.87,-0.13741
1670.88,-0.13734
1670.89,-0.13741
1670.9,-0.1376
1670.91,-0.13763
1670.92,-0.13797
1670.93,-0.13794
1670.94,-0.13802
1670.95,-0.1387
1670.96,-0.1382
1670.97,-0.13917
1670.98,-0.13942
1670.99,-0.14013
1671,-0.14059
1671.01,-0.14018
1671.02,-0.14116
1671.03,-0.14022
1671.04,-0.14061
1671.05,-0.14001
1671.06,-0.13932
1671.07,-0.13917
1671.08,-0.13825
1671.09,-0.13823
1671.1,-0.13835
1671.11,-0.13841
1671.12,-0.13873
1671.13,-0.13857
1671.14,-0.13832
1671.15,-0.13889
1671.16,-0.13818
1671.17,-0.13866
1671.18,-0.13864
1671.19,-0.13862
1671.2,-0.13859
1671.21,-0.13912
1671.22,-0.13889
1671.23,-0.13941
1671.24,-0.13887
1671.25,-0.13864
1671.26,-0.13937
1671.27,-0.13887
1671.28,-0.13904
1671.29,-0.13902
1671.3,-0.13869
1671.31,-0.13924
1671.32,-0.14598
1671.33,-0.16651
1671.34,-0.21467
1671.35,-0.29912
1671.36,-0.4226
1671.37,-0.57071
1671.38,-0.72329
1671.39,-0.87559
1671.4,-0.99812
1671.41,-1.06767
1671.42,-1.07342
1671.43,-1.01228
1671.44,-0.89552
1671.45,-0.74601
1671.46,-0.5877
1671.47,-0.44587
1671.48,-0.33159
1671.49,-0.24894
1671.5,-0.19378
1671.51,-0.16161
1671.52,-0.14594
1671.53,-0.14008
1671.54,-0.13715
1671.55,-0.13657
1671.56,-0.13615
1671.57,-0.13633
1671.58,-0.13655
1671.59,-0.13671
1671.6,-0.13618
1671.61,-0.13607
1671.62,-0.13581
1671.63,-0.13598
1671.64,-0.13611
1671.65,-0.13591
1671.66,-0.13663
1671.67,-0.13662
1671.68,-0.13729
1671.69,-0.13683
1671.7,-0.13778
1671.71,-0.13791
1671.72,-0.13848
1671.73,-0.13718
1671.74,-0.13765
1671.75,-0.1375
1671.76,-0.13782
1671.77,-0.13724
1671.78,-0.13802
1671.79,-0.13722
1671.8,-0.13745
1671.81,-0.13728
1671.82,-0.13723
1671.83,-0.13663
1671.84,-0.13657
1671.85,-0.13623
1671.86,-0.13593
1671.87,-0.13577
1671.88,-0.13608
1671.89,-0.13627
1671.9,-0.1356
1671.91,-0.13641
1671.92,-0.1365
1671.93,-0.13672
1671.94,-0.13616
1671.95,-0.13644
1671.96,-0.1364
1671.97,-0.13612
1671.98,-0.13621
1671.99,-0.13651
1672,-0.13722
1672.01,-0.13719
1672.02,-0.13731
1672.03,-0.13728
1672.04,-0.13815
1672.05,-0.13696
1672.06,-0.13728
1672.07,-0.13729
1672.08,-0.13716
1672.09,-0.13645
1672.1,-0.13668
1672.11,-0.13697
1672.12,-0.13629
1672.13,-0.13671
1672.14,-0.13706
1672.15,-0.13664
1672.16,-0.1373
1672.17,-0.13629
1672.18,-0.13666
1672.19,-0.13637
1672.2,-0.13669
1672.21,-0.13687
1672.22,-0.13684
1672.23,-0.13765
1672.24,-0.13769
1672.25,-0.13877
1672.26,-0.13855
1672.27,-0.13935
1672.28,-0.1392
1672.29,-0.13931
1672.3,-0.13988
1672.31,-0.13973
1672.32,-0.14
1672.33,-0.13971
1672.34,-0.1397
1672.35,-0.13962
1672.36,-0.13983
1672.37,-0.13857
1672.38,-0.13839
1672.39,-0.13793
1672.4,-0.13742
1672.41,-0.1369
1672.42,-0.137
1672.43,-0.13646
1672.44,-0.13622
1672.45,-0.13652
1672.46,-0.13682
1672.47,-0.13668
1672.48,-0.13629
1672.49,-0.13652
1672.5,-0.13694
1672.51,-0.1364
1672.52,-0.13638
1672.53,-0.13591
1672.54,-0.13571
1672.55,-0.1368
1672.56,-0.13704
1672.57,-0.13779
1672.58,-0.13746
1672.59,-0.13804
1672.6,-0.13818
1672.61,-0.13782
1672.62,-0.13754
1672.63,-0.13727
1672.64,-0.13708
1672.65,-0.13731
1672.66,-0.13666
1672.67,-0.13686
1672.68,-0.13659
1672.69,-0.13668
1672.7,-0.1375
1672.71,-0.1374
1672.72,-0.13711
1672.73,-0.13713
1672.74,-0.13764
1672.75,-0.13765
1672.76,-0.13799
1672.77,-0.13877
1672.78,-0.13986
1672.79,-0.14023
1672.8,-0.14134
1672.81,-0.14126
1672.82,-0.14234
1672.83,-0.14155
1672.84,-0.14079
1672.85,-0.14039
1672.86,-0.13928
1672.87,-0.13918
1672.88,-0.13872
1672.89,-0.1374
1672.9,-0.13811
1672.91,-0.13728
1672.92,-0.13714
1672.93,-0.13756
1672.94,-0.13714
1672.95,-0.1368
1672.96,-0.13641
1672.97,-0.13623
1672.98,-0.13633
1672.99,-0.13643
1673,-0.13674
1673.01,-0.13664
1673.02,-0.13717
1673.03,-0.13732
1673.04,-0.1376
1673.05,-0.13794
1673.06,-0.13842
1673.07,-0.13793
1673.08,-0.13812
1673.09,-0.1386
1673.1,-0.13875
1673.11,-0.13955
1673.12,-0.13926
1673.13,-0.13964
1673.14,-0.14007
1673.15,-0.14004
1673.16,-0.1401
1673.17,-0.13993
1673.18,-0.14017
1673.19,-0.14053
1673.2,-0.14067
1673.21,-0.142
1673.22,-0.14207
1673.23,-0.14362
1673.24,-0.14309
1673.25,-0.14427
1673.26,-0.1433
1673.27,-0.14305
1673.28,-0.14193
1673.29,-0.14128
1673.3,-0.13991
1673.31,-0.13945
1673.32,-0.13836
1673.33,-0.13785
1673.34,-0.13786
1673.35,-0.13775
1673.36,-0.1377
1673.37,-0.1375
1673.38,-0.13776
1673.39,-0.13783
1673.4,-0.13712
1673.41,-0.13703
1673.42,-0.13727
1673.43,-0.13723
1673.44,-0.13758
1673.45,-0.13786
1673.46,-0.13768
1673.47,-0.13837
1673.48,-0.13939
1673.49,-0.13967
1673.5,-0.14019
1673.51,-0.14092
1673.52,-0.14019
1673.53,-0.14158
1673.54,-0.1422
1673.55,-0.14179
1673.56,-0.14258
1673.57,-0.14321
1673.58,-0.14342
1673.59,-0.14389
1673.6,-0.14387
1673.61,-0.14282
1673.62,-0.14255
1673.63,-0.14119
1673.64,-0.14002
1673.65,-0.1391
1673.66,-0.1383
1673.67,-0.1381
1673.68,-0.13732
1673.69,-0.13705
1673.7,-0.13684
1673.71,-0.13697
1673.72,-0.1368
1673.73,-0.13679
1673.74,-0.13645
1673.75,-0.13583
1673.76,-0.13763
1673.77,-0.13612
1673.78,-0.13608
1673.79,-0.13612
1673.8,-0.13655
1673.81,-0.13704
1673.82,-0.13745
1673.83,-0.1375
1673.84,-0.13757
1673.85,-0.13845
1673.86,-0.13839
1673.87,-0.1395
1673.88,-0.13965
1673.89,-0.14118
1673.9,-0.14177
1673.91,-0.14237
1673.92,-0.14194
1673.93,-0.14223
1673.94,-0.14125
1673.95,-0.14024
1673.96,-0.13973
1673.97,-0.13862
1673.98,-0.13659
1673.99,-0.13732
1674,-0.13623
1674.01,-0.13627
1674.02,-0.13664
1674.03,-0.13654
1674.04,-0.13701
1674.05,-0.13672
1674.06,-0.13666
1674.07,-0.13612
1674.08,-0.13629
1674.09,-0.13706
1674.1,-0.13745
1674.11,-0.13774
1674.12,-0.13896
1674.13,-0.13945
1674.14,-0.14034
1674.15,-0.14088
1674.16,-0.14154
1674.17,-0.142
1674.18,-0.1414
1674.19,-0.14057
1674.2,-0.1403
1674.21,-0.13945
1674.22,-0.1385
1674.23,-0.13897
1674.24,-0.13856
1674.25,-0.13816
1674.26,-0.13822
1674.27,-0.13884
1674.28,-0.13839
1674.29,-0.13834
1674.3,-0.13854
1674.31,-0.13825
1674.32,-0.13758
1674.33,-0.13873
1674.34,-0.13867
1674.35,-0.13971
1674.36,-0.13962
1674.37,-0.14064
1674.38,-0.14072
1674.39,-0.14148
1674.4,-0.14234
1674.41,-0.14145
1674.42,-0.14032
1674.43,-0.14114
1674.44,-0.15086
1674.45,-0.18673
1674.46,-0.27032
1674.47,-0.42516
1674.48,-0.65998
1674.49,-0.96439
1674.5,-1.28822
1674.51,-1.59972
1674.52,-1.83885
1674.53,-1.99977
1674.54,-2.03633
1674.55,-1.96174
1674.56,-1.79379
1674.57,-1.54728
1674.58,-1.24379
1674.59,-0.92667
1674.6,-0.6479
1674.61,-0.43622
1674.62,-0.29355
1674.63,-0.2123
1674.64,-0.16991
1674.65,-0.15079
1674.66,-0.14218
1674.67,-0.13898
1674.68,-0.13794
1674.69,-0.13752
1674.7,-0.13752
1674.71,-0.13768
1674.72,-0.13731
1674.73,-0.13742
1674.74,-0.13634
1674.75,-0.13704
1674.76,-0.13707
1674.77,-0.13625
1674.78,-0.13712
1674.79,-0.13667
1674.8,-0.13713
1674.81,-0.1375
1674.82,-0.13795
1674.83,-0.13802
1674.84,-0.13815
1674.85,-0.13852
1674.86,-0.13777
1674.87,-0.13856
1674.88,-0.13885
1674.89,-0.1385
1674.9,-0.13901
1674.91,-0.13839
1674.92,-0.13913
1674.93,-0.13873
1674.94,-0.13862
1674.95,-0.13894
1674.96,-0.13799
1674.97,-0.13806
1674.98,-0.137
1674.99,-0.13739
1675,-0.13666
1675.01,-0.13691
1675.02,-0.13658
1675.03,-0.13652
1675.04,-0.13654
1675.05,-0.13664
1675.06,-0.13651
1675.07,-0.13572
1675.08,-0.13602
1675.09,-0.13604
1675.1,-0.13564
1675.11,-0.13605
1675.12,-0.13563
1675.13,-0.1361
1675.14,-0.13635
1675.15,-0.13618
1675.16,-0.13681
1675.17,-0.13696
1675.18,-0.13644
1675.19,-0.13618
1675.2,-0.13636
1675.21,-0.13621
1675.22,-0.13614
1675.23,-0.1356
1675.24,-0.13589
1675.25,-0.13598
1675.26,-0.13521
1675.27,-0.13585
1675.28,-0.13552
1675.29,-0.13536
1675.3,-0.13526
1675.31,-0.1347
1675.32,-0.13461
1675.33,-0.13445
1675.34,-0.13486
1675.35,-0.13439
1675.36,-0.1348
1675.37,-0.13546
1675.38,-0.13538
1675.39,-0.13583
1675.4,-0.13618
1675.41,-0.13646
1675.42,-0.1365
1675.43,-0.1364
1675.44,-0.13717
1675.45,-0.13743
1675.46,-0.13764
1675.47,-0.13792
1675.48,-0.13826
1675.49,-0.13879
1675.5,-0.13783
1675.51,-0.13793
1675.52,-0.13738
1675.53,-0.13685
1675.54,-0.1364
1675.55,-0.136
1675.56,-0.13552
1675.57,-0.13509
1675.58,-0.13527
1675.59,-0.13523
1675.6,-0.13511
1675.61,-0.13522
1675.62,-0.13527
1675.63,-0.13542
1675.64,-0.13482
1675.65,-0.13436
1675.66,-0.13447
1675.67,-0.13446
1675.68,-0.13492
1675.69,-0.13496
1675.7,-0.13593
1675.71,-0.13462
1675.72,-0.13742
1675.73,-0.13687
1675.74,-0.13606
1675.75,-0.13689
1675.76,-0.13702
1675.77,-0.13676
1675.78,-0.1365
1675.79,-0.13661
1675.8,-0.13669
1675.81,-0.13642
1675.82,-0.13748
1675.83,-0.13644
1675.84,-0.13703
1675.85,-0.13628
1675.86,-0.13624
1675.87,-0.13658
1675.88,-0.13617
1675.89,-0.13721
1675.9,-0.13691
1675.91,-0.1373
1675.92,-0.13857
1675.93,-0.13918
1675.94,-0.14001
1675.95,-0.14102
1675.96,-0.14127
1675.97,-0.14166
1675.98,-0.14213
1675.99,-0.14138
1676,-0.14064
1676.01,-0.14027
1676.02,-0.13994
1676.03,-0.13847
1676.04,-0.13816
1676.05,-0.13691
1676.06,-0.13703
1676.07,-0.13645
1676.08,-0.13583
1676.09,-0.1351
1676.1,-0.13464
1676.11,-0.13423
1676.12,-0.13414
1676.13,-0.13439
1676.14,-0.13418
1676.15,-0.13422
1676.16,-0.13411
1676.17,-0.13441
1676.18,-0.13419
1676.19,-0.13433
1676.2,-0.13448
1676.21,-0.13423
1676.22,-0.13426
1676.23,-0.13405
1676.24,-0.13487
1676.25,-0.13552
1676.26,-0.13624
1676.27,-0.13625
1676.28,-0.13583
1676.29,-0.13666
1676.3,-0.13547
1676.31,-0.13573
1676.32,-0.13522
1676.33,-0.13567
1676.34,-0.13567
1676.35,-0.13618
1676.36,-0.13673
1676.37,-0.13812
1676.38,-0.13875
1676.39,-0.13901
1676.4,-0.13974
1676.41,-0.14048
1676.42,-0.13952
1676.43,-0.13909
1676.44,-0.13814
1676.45,-0.13694
1676.46,-0.13626
1676.47,-0.13592
1676.48,-0.13457
1676.49,-0.13408
1676.5,-0.1343
1676.51,-0.13377
1676.52,-0.13337
1676.53,-0.13221
1676.54,-0.13288
1676.55,-0.13267
1676.56,-0.1327
1676.57,-0.13268
1676.58,-0.13273
1676.59,-0.13303
1676.6,-0.13277
1676.61,-0.13379
1676.62,-0.13361
1676.63,-0.13443
1676.64,-0.13443
1676.65,-0.13516
1676.66,-0.13585
1676.67,-0.13581
1676.68,-0.1373
1676.69,-0.13812
1676.7,-0.13829
1676.71,-0.1394
1676.72,-0.14039
1676.73,-0.14066
1676.74,-0.14141
1676.75,-0.14145
1676.76,-0.14135
1676.77,-0.1411
1676.78,-0.1402
1676.79,-0.13951
1676.8,-0.13841
1676.81,-0.13731
1676.82,-0.13698
1676.83,-0.13565
1676.84,-0.135
1676.85,-0.1344
1676.86,-0.1339
1676.87,-0.1334
1676.88,-0.13337
1676.89,-0.13296
1676.9,-0.13282
1676.91,-0.133
1676.92,-0.13338
1676.93,-0.13331
1676.94,-0.13336
1676.95,-0.13357
1676.96,-0.13312
1676.97,-0.13434
1676.98,-0.13376
1676.99,-0.13406
1677,-0.13452
1677.01,-0.13422
1677.02,-0.13506
1677.03,-0.13589
1677.04,-0.13751
1677.05,-0.13842
1677.06,-0.13973
1677.07,-0.13968
1677.08,-0.13961
1677.09,-0.14005
1677.1,-0.13895
1677.11,-0.13865
1677.12,-0.13761
1677.13,-0.13669
1677.14,-0.13559
1677.15,-0.13543
1677.16,-0.13489
1677.17,-0.13415
1677.18,-0.1338
1677.19,-0.13357
1677.2,-0.13332
1677.21,-0.13275
1677.22,-0.13339
1677.23,-0.13296
1677.24,-0.13381
1677.25,-0.1337
1677.26,-0.13402
1677.27,-0.13493
1677.28,-0.13597
1677.29,-0.13646
1677.3,-0.13707
1677.31,-0.13779
1677.32,-0.13793
1677.33,-0.13881
1677.34,-0.13907
1677.35,-0.1384
1677.36,-0.13837
1677.37,-0.13765
1677.38,-0.13736
1677.39,-0.13694
1677.4,-0.13638
1677.41,-0.13606
1677.42,-0.13656
1677.43,-0.13624
1677.44,-0.1361
1677.45,-0.13639
1677.46,-0.13615
1677.47,-0.13643
1677.48,-0.13648
1677.49,-0.13621
1677.5,-0.1368
1677.51,-0.13697
1677.52,-0.1375
1677.53,-0.13776
1677.54,-0.1381
1677.55,-0.13902
1677.56,-0.13929
1677.57,-0.13864
1677.58,-0.13819
1677.59,-0.14535
1677.6,-0.18557
1677.61,-0.28571
1677.62,-0.4821
1677.63,-0.79118
1677.64,-1.19673
1677.65,-1.67671
1677.66,-2.12981
1677.67,-2.5251
1677.68,-2.83025
1677.69,-2.99142
1677.7,-2.99882
1677.71,-2.85142
1677.72,-2.54921
1677.73,-2.12986
1677.74,-1.67042
1677.75,-1.24536
1677.76,-0.87144
1677.77,-0.57266
1677.78,-0.37022
1677.79,-0.25836
1677.8,-0.18923
1677.81,-0.15685
1677.82,-0.14324
1677.83,-0.13885
1677.84,-0.13709
1677.85,-0.13684
1677.86,-0.13631
1677.87,-0.13586
1677.88,-0.13495
1677.89,-0.1352
1677.9,-0.13528
1677.91,-0.13493
1677.92,-0.13516
1677.93,-0.13519
1677.94,-0.13565
1677.95,-0.13563
1677.96,-0.13581
1677.97,-0.13585
1677.98,-0.13646
1677.99,-0.1357
1678,-0.13625
1678.01,-0.1358
1678.02,-0.13633
1678.03,-0.13674
1678.04,-0.13712
1678.05,-0.13753
1678.06,-0.13834
1678.07,-0.13871
1678.08,-0.13944
1678.09,-0.1389
1678.1,-0.13948
1678.11,-0.13921
1678.12,-0.13933
1678.13,-0.13974
1678.14,-0.13937
1678.15,-0.1397
1678.16,-0.13934
1678.17,-0.13908
1678.18,-0.13842
1678.19,-0.13845
1678.2,-0.13786
1678.21,-0.13705
1678.22,-0.13694
1678.23,-0.13658
1678.24,-0.13597
1678.25,-0.13644
1678.26,-0.13638
1678.27,-0.13621
1678.28,-0.13638
1678.29,-0.13661
1678.3,-0.13615
1678.31,-0.13625
1678.32,-0.13599
1678.33,-0.13598
1678.34,-0.13749
1678.35,-0.13553
1678.36,-0.13742
1678.37,-0.1371
1678.38,-0.137
1678.39,-0.13783
1678.4,-0.13759
1678.41,-0.1379
1678.42,-0.13727
1678.43,-0.13734
1678.44,-0.13696
1678.45,-0.13684
1678.46,-0.1366
1678.47,-0.13665
1678.48,-0.13622
1678.49,-0.13681
1678.5,-0.13612
1678.51,-0.13629
1678.52,-0.13644
1678.53,-0.13653
1678.54,-0.13594
1678.55,-0.13567
1678.56,-0.13574
1678.57,-0.13609
1678.58,-0.13657
1678.59,-0.13638
1678.6,-0.13661
1678.61,-0.13737
1678.62,-0.13807
1678.63,-0.13813
1678.64,-0.13943
1678.65,-0.13962
1678.66,-0.14009
1678.67,-0.14038
1678.68,-0.14134
1678.69,-0.14214
1678.7,-0.14138
1678.71,-0.14259
1678.72,-0.14273
1678.73,-0.14139
1678.74,-0.14174
1678.75,-0.14051
1678.76,-0.13983
1678.77,-0.13903
1678.78,-0.13835
1678.79,-0.13735
1678.8,-0.1374
1678.81,-0.13679
1678.82,-0.13706
1678.83,-0.13688
1678.84,-0.13705
1678.85,-0.13635
1678.86,-0.13672
1678.87,-0.13659
1678.88,-0.13685
1678.89,-0.1364
1678.9,-0.13612
1678.91,-0.13671
1678.92,-0.13686
1678.93,-0.13746
1678.94,-0.1374
1678.95,-0.13814
1678.96,-0.139
1678.97,-0.13848
1678.98,-0.13829
1678.99,-0.13851
1679,-0.13879
1679.01,-0.13828
1679.02,-0.13817
1679.03,-0.13787
1679.04,-0.13793
1679.05,-0.13769
1679.06,-0.13763
1679.07,-0.13771
1679.08,-0.13743
1679.09,-0.13729
1679.1,-0.13725
1679.11,-0.13782
1679.12,-0.13797
1679.13,-0.139
1679.14,-0.13982
1679.15,-0.14149
1679.16,-0.14199
1679.17,-0.14412
1679.18,-0.1453
1679.19,-0.14594
1679.2,-0.14666
1679.21,-0.14686
1679.22,-0.14585
1679.23,-0.14577
1679.24,-0.14394
1679.25,-0.14325
1679.26,-0.14151
1679.27,-0.14009
1679.28,-0.13995
1679.29,-0.13866
1679.3,-0.13818
1679.31,-0.13795
1679.32,-0.13728
1679.33,-0.136
1679.34,-0.13598
1679.35,-0.13581
1679.36,-0.13566
1679.37,-0.13618
1679.38,-0.13655
1679.39,-0.1357
1679.4,-0.13714
1679.41,-0.13684
1679.42,-0.13693
1679.43,-0.13745
1679.44,-0.13742
1679.45,-0.13723
1679.46,-0.1384
1679.47,-0.1391
1679.48,-0.13925
1679.49,-0.13964
1679.5,-0.14173
1679.51,-0.14048
1679.52,-0.14072
1679.53,-0.14119
1679.54,-0.14061
1679.55,-0.14069
1679.56,-0.14076
1679.57,-0.14115
1679.58,-0.14214
1679.59,-0.14348
1679.6,-0.14408
1679.61,-0.14552
1679.62,-0.14736
1679.63,-0.14778
1679.64,-0.14805
1679.65,-0.14813
1679.66,-0.14657
1679.67,-0.14572
1679.68,-0.14341
1679.69,-0.14154
1679.7,-0.14077
1679.71,-0.13939
1679.72,-0.13872
1679.73,-0.13815
1679.74,-0.13694
1679.75,-0.1375
1679.76,-0.13663
1679.77,-0.13609
1679.78,-0.13602
1679.79,-0.13513
1679.8,-0.13587
1679.81,-0.13539
1679.82,-0.13528
1679.83,-0.13595
1679.84,-0.13579
1679.85,-0.13618
1679.86,-0.13712
1679.87,-0.13703
1679.88,-0.13793
1679.89,-0.13802
1679.9,-0.13926
1679.91,-0.14022
1679.92,-0.14142
1679.93,-0.14228
1679.94,-0.14357
1679.95,-0.14458
1679.96,-0.1459
1679.97,-0.14673
1679.98,-0.14636
1679.99,-0.14754
1680,-0.1466
