3/04/2024,1:55:00 PM
Software,STS IL/PDL,IL,Normal,1.3.3.0
TSL,SANTEC,TSL-570,23020004,0022.0017.0009
PowerMeter,SANTEC,MPM-210H,23020023,Ver.1.19
,Module0,MPM-211,23020025M211,Ver.1.22
Power Monitor,DAQ
Start,1600,nm
Stop,1680,nm
Step,0.01,nm
Speed,20,nm/s
Source Power,10,dBm
Averaging Time,0.5,msec
Power meter range,23020025M211,(Ch1),-30～+10dBm,-40～ 0dBm
--HEADER END--
--DATA START--
Wavelength(nm),IL_M1_S0_CH1
1600,-0.11886
1600.01,-0.11972
1600.02,-0.11934
1600.03,-0.11972
1600.04,-0.11888
1600.05,-0.11834
1600.06,-0.11912
1600.07,-0.11851
1600.08,-0.11874
1600.09,-0.1186
1600.1,-0.11903
1600.11,-0.11899
1600.12,-0.11934
1600.13,-0.11889
1600.14,-0.11907
1600.15,-0.11885
1600.16,-0.1185
1600.17,-0.1183
1600.18,-0.1183
1600.19,-0.11913
1600.2,-0.11865
1600.21,-0.1188
1600.22,-0.1189
1600.23,-0.11901
1600.24,-0.11878
1600.25,-0.11961
1600.26,-0.11845
1600.27,-0.11875
1600.28,-0.11877
1600.29,-0.11856
1600.3,-0.11862
1600.31,-0.11899
1600.32,-0.11878
1600.33,-0.11913
1600.34,-0.11936
1600.35,-0.11894
1600.36,-0.11878
1600.37,-0.11865
1600.38,-0.11878
1600.39,-0.11831
1600.4,-0.11865
1600.41,-0.11861
1600.42,-0.11878
1600.43,-0.11933
1600.44,-0.11859
1600.45,-0.11888
1600.46,-0.11862
1600.47,-0.11867
1600.48,-0.11848
1600.49,-0.11876
1600.5,-0.11826
1600.51,-0.11806
1600.52,-0.11848
1600.53,-0.11839
1600.54,-0.11821
1600.55,-0.11868
1600.56,-0.11899
1600.57,-0.11829
1600.58,-0.11887
1600.59,-0.11903
1600.6,-0.11821
1600.61,-0.11802
1600.62,-0.11804
1600.63,-0.11789
1600.64,-0.11809
1600.65,-0.11805
1600.66,-0.118
1600.67,-0.1187
1600.68,-0.11862
1600.69,-0.11866
1600.7,-0.11806
1600.71,-0.11878
1600.72,-0.11724
1600.73,-0.11814
1600.74,-0.11764
1600.75,-0.11777
1600.76,-0.11782
1600.77,-0.11809
1600.78,-0.11859
1600.79,-0.11826
1600.8,-0.11837
1600.81,-0.11779
1600.82,-0.11794
1600.83,-0.11754
1600.84,-0.11776
1600.85,-0.11768
1600.86,-0.11745
1600.87,-0.11751
1600.88,-0.11778
1600.89,-0.11806
1600.9,-0.1181
1600.91,-0.11868
1600.92,-0.11858
1600.93,-0.11763
1600.94,-0.11787
1600.95,-0.11813
1600.96,-0.11818
1600.97,-0.11774
1600.98,-0.11834
1600.99,-0.11784
1601,-0.11827
1601.01,-0.11842
1601.02,-0.11842
1601.03,-0.11901
1601.04,-0.11856
1601.05,-0.11797
1601.06,-0.11826
1601.07,-0.11801
1601.08,-0.1182
1601.09,-0.11811
1601.1,-0.11862
1601.11,-0.11889
1601.12,-0.11882
1601.13,-0.11928
1601.14,-0.119
1601.15,-0.11874
1601.16,-0.11862
1601.17,-0.1186
1601.18,-0.11841
1601.19,-0.11863
1601.2,-0.11943
1601.21,-0.11795
1601.22,-0.1197
1601.23,-0.11933
1601.24,-0.11935
1601.25,-0.11939
1601.26,-0.11891
1601.27,-0.11957
1601.28,-0.11863
1601.29,-0.11868
1601.3,-0.11902
1601.31,-0.11873
1601.32,-0.119
1601.33,-0.11975
1601.34,-0.11935
1601.35,-0.11905
1601.36,-0.11967
1601.37,-0.11944
1601.38,-0.11888
1601.39,-0.11851
1601.4,-0.11902
1601.41,-0.11879
1601.42,-0.11836
1601.43,-0.11896
1601.44,-0.11904
1601.45,-0.11912
1601.46,-0.11966
1601.47,-0.11986
1601.48,-0.11982
1601.49,-0.11912
1601.5,-0.1186
1601.51,-0.11916
1601.52,-0.11839
1601.53,-0.11897
1601.54,-0.11853
1601.55,-0.11936
1601.56,-0.11909
1601.57,-0.11959
1601.58,-0.11865
1601.59,-0.11949
1601.6,-0.11875
1601.61,-0.11877
1601.62,-0.11839
1601.63,-0.118
1601.64,-0.11878
1601.65,-0.11847
1601.66,-0.11873
1601.67,-0.11865
1601.68,-0.11892
1601.69,-0.11891
1601.7,-0.11903
1601.71,-0.11853
1601.72,-0.11879
1601.73,-0.11811
1601.74,-0.11836
1601.75,-0.1175
1601.76,-0.11804
1601.77,-0.11841
1601.78,-0.11877
1601.79,-0.11816
1601.8,-0.1187
1601.81,-0.11887
1601.82,-0.11828
1601.83,-0.11822
1601.84,-0.11804
1601.85,-0.11841
1601.86,-0.11728
1601.87,-0.11784
1601.88,-0.1177
1601.89,-0.11835
1601.9,-0.11785
1601.91,-0.11851
1601.92,-0.11823
1601.93,-0.11856
1601.94,-0.11735
1601.95,-0.11817
1601.96,-0.11791
1601.97,-0.11739
1601.98,-0.11758
1601.99,-0.11729
1602,-0.11817
1602.01,-0.11789
1602.02,-0.11787
1602.03,-0.11809
1602.04,-0.11828
1602.05,-0.11764
1602.06,-0.11797
1602.07,-0.11793
1602.08,-0.11743
1602.09,-0.11824
1602.1,-0.118
1602.11,-0.11801
1602.12,-0.11839
1602.13,-0.1181
1602.14,-0.11828
1602.15,-0.11876
1602.16,-0.11882
1602.17,-0.1182
1602.18,-0.11763
1602.19,-0.11801
1602.2,-0.11854
1602.21,-0.11856
1602.22,-0.11868
1602.23,-0.11897
1602.24,-0.11862
1602.25,-0.11963
1602.26,-0.11883
1602.27,-0.11859
1602.28,-0.11891
1602.29,-0.11894
1602.3,-0.11864
1602.31,-0.11936
1602.32,-0.1188
1602.33,-0.11908
1602.34,-0.11992
1602.35,-0.11944
1602.36,-0.11927
1602.37,-0.11975
1602.38,-0.1198
1602.39,-0.11975
1602.4,-0.11949
1602.41,-0.11949
1602.42,-0.11927
1602.43,-0.11962
1602.44,-0.11982
1602.45,-0.12017
1602.46,-0.11959
1602.47,-0.12099
1602.48,-0.1201
1602.49,-0.11998
1602.5,-0.11965
1602.51,-0.12004
1602.52,-0.12027
1602.53,-0.11921
1602.54,-0.12046
1602.55,-0.11978
1602.56,-0.12012
1602.57,-0.12084
1602.58,-0.12066
1602.59,-0.12072
1602.6,-0.12095
1602.61,-0.12033
1602.62,-0.12048
1602.63,-0.12033
1602.64,-0.12011
1602.65,-0.12045
1602.66,-0.12038
1602.67,-0.12026
1602.68,-0.12113
1602.69,-0.1214
1602.7,-0.12075
1602.71,-0.12107
1602.72,-0.12053
1602.73,-0.12105
1602.74,-0.12049
1602.75,-0.12063
1602.76,-0.12066
1602.77,-0.12017
1602.78,-0.12068
1602.79,-0.12066
1602.8,-0.12131
1602.81,-0.12083
1602.82,-0.12124
1602.83,-0.12089
1602.84,-0.12062
1602.85,-0.12028
1602.86,-0.12062
1602.87,-0.12012
1602.88,-0.12066
1602.89,-0.1212
1602.9,-0.12063
1602.91,-0.12055
1602.92,-0.12115
1602.93,-0.12081
1602.94,-0.12074
1602.95,-0.12031
1602.96,-0.12034
1602.97,-0.12063
1602.98,-0.11982
1602.99,-0.12043
1603,-0.12037
1603.01,-0.12073
1603.02,-0.12033
1603.03,-0.12095
1603.04,-0.12029
1603.05,-0.12039
1603.06,-0.12001
1603.07,-0.12007
1603.08,-0.11992
1603.09,-0.11939
1603.1,-0.1203
1603.11,-0.12033
1603.12,-0.11999
1603.13,-0.1205
1603.14,-0.12026
1603.15,-0.12089
1603.16,-0.12029
1603.17,-0.11992
1603.18,-0.12026
1603.19,-0.11961
1603.2,-0.11992
1603.21,-0.11998
1603.22,-0.11982
1603.23,-0.11996
1603.24,-0.12001
1603.25,-0.12024
1603.26,-0.12051
1603.27,-0.12039
1603.28,-0.12049
1603.29,-0.11962
1603.3,-0.1199
1603.31,-0.11978
1603.32,-0.11974
1603.33,-0.11992
1603.34,-0.1207
1603.35,-0.12029
1603.36,-0.12046
1603.37,-0.11992
1603.38,-0.12002
1603.39,-0.12059
1603.4,-0.11969
1603.41,-0.12039
1603.42,-0.11965
1603.43,-0.11972
1603.44,-0.12044
1603.45,-0.12097
1603.46,-0.11912
1603.47,-0.12112
1603.48,-0.12116
1603.49,-0.121
1603.5,-0.1205
1603.51,-0.12083
1603.52,-0.12055
1603.53,-0.1201
1603.54,-0.11985
1603.55,-0.12001
1603.56,-0.12104
1603.57,-0.12062
1603.58,-0.12077
1603.59,-0.12121
1603.6,-0.12071
1603.61,-0.12067
1603.62,-0.12045
1603.63,-0.11999
1603.64,-0.11985
1603.65,-0.12077
1603.66,-0.1205
1603.67,-0.12058
1603.68,-0.12024
1603.69,-0.12109
1603.7,-0.12085
1603.71,-0.12151
1603.72,-0.12037
1603.73,-0.12035
1603.74,-0.1205
1603.75,-0.1203
1603.76,-0.12065
1603.77,-0.12
1603.78,-0.12085
1603.79,-0.12034
1603.8,-0.12084
1603.81,-0.12104
1603.82,-0.12095
1603.83,-0.12066
1603.84,-0.12092
1603.85,-0.12029
1603.86,-0.12037
1603.87,-0.11983
1603.88,-0.12059
1603.89,-0.12102
1603.9,-0.12089
1603.91,-0.12112
1603.92,-0.12069
1603.93,-0.12078
1603.94,-0.12078
1603.95,-0.12046
1603.96,-0.12088
1603.97,-0.12027
1603.98,-0.12092
1603.99,-0.12042
1604,-0.12044
1604.01,-0.12042
1604.02,-0.12091
1604.03,-0.12094
1604.04,-0.12097
1604.05,-0.12107
1604.06,-0.12018
1604.07,-0.12109
1604.08,-0.12031
1604.09,-0.1202
1604.1,-0.1207
1604.11,-0.12054
1604.12,-0.12043
1604.13,-0.1208
1604.14,-0.12108
1604.15,-0.12096
1604.16,-0.12052
1604.17,-0.12036
1604.18,-0.12077
1604.19,-0.12036
1604.2,-0.12055
1604.21,-0.12014
1604.22,-0.12039
1604.23,-0.12026
1604.24,-0.12048
1604.25,-0.12077
1604.26,-0.1206
1604.27,-0.12058
1604.28,-0.12085
1604.29,-0.12043
1604.3,-0.12053
1604.31,-0.12086
1604.32,-0.12017
1604.33,-0.12106
1604.34,-0.12042
1604.35,-0.12042
1604.36,-0.12111
1604.37,-0.12123
1604.38,-0.12103
1604.39,-0.12083
1604.4,-0.12096
1604.41,-0.12008
1604.42,-0.12026
1604.43,-0.12044
1604.44,-0.12039
1604.45,-0.12011
1604.46,-0.12049
1604.47,-0.12037
1604.48,-0.12065
1604.49,-0.12099
1604.5,-0.12133
1604.51,-0.12037
1604.52,-0.12044
1604.53,-0.1204
1604.54,-0.12032
1604.55,-0.12037
1604.56,-0.12057
1604.57,-0.12043
1604.58,-0.12115
1604.59,-0.1205
1604.6,-0.12107
1604.61,-0.12062
1604.62,-0.12028
1604.63,-0.11954
1604.64,-0.12034
1604.65,-0.11991
1604.66,-0.12008
1604.67,-0.12062
1604.68,-0.12023
1604.69,-0.12091
1604.7,-0.12069
1604.71,-0.12083
1604.72,-0.12073
1604.73,-0.12035
1604.74,-0.12009
1604.75,-0.11998
1604.76,-0.11978
1604.77,-0.11995
1604.78,-0.11936
1604.79,-0.12046
1604.8,-0.12023
1604.81,-0.12034
1604.82,-0.12053
1604.83,-0.12028
1604.84,-0.12019
1604.85,-0.12042
1604.86,-0.12011
1604.87,-0.11978
1604.88,-0.11984
1604.89,-0.1196
1604.9,-0.11959
1604.91,-0.1202
1604.92,-0.12047
1604.93,-0.12036
1604.94,-0.12045
1604.95,-0.12045
1604.96,-0.1205
1604.97,-0.11938
1604.98,-0.11959
1604.99,-0.11967
1605,-0.12
1605.01,-0.11964
1605.02,-0.12018
1605.03,-0.11995
1605.04,-0.12035
1605.05,-0.12051
1605.06,-0.12058
1605.07,-0.12082
1605.08,-0.1193
1605.09,-0.12033
1605.1,-0.11895
1605.11,-0.11977
1605.12,-0.11984
1605.13,-0.11992
1605.14,-0.12037
1605.15,-0.11998
1605.16,-0.12003
1605.17,-0.11999
1605.18,-0.11981
1605.19,-0.12003
1605.2,-0.11957
1605.21,-0.11893
1605.22,-0.12041
1605.23,-0.11964
1605.24,-0.11964
1605.25,-0.1199
1605.26,-0.12034
1605.27,-0.12003
1605.28,-0.12029
1605.29,-0.11969
1605.3,-0.12011
1605.31,-0.11954
1605.32,-0.11952
1605.33,-0.11958
1605.34,-0.11987
1605.35,-0.11949
1605.36,-0.12034
1605.37,-0.11996
1605.38,-0.12026
1605.39,-0.12005
1605.4,-0.12008
1605.41,-0.11973
1605.42,-0.1194
1605.43,-0.11978
1605.44,-0.11964
1605.45,-0.1197
1605.46,-0.11975
1605.47,-0.12021
1605.48,-0.11986
1605.49,-0.12064
1605.5,-0.11996
1605.51,-0.12123
1605.52,-0.11999
1605.53,-0.12059
1605.54,-0.12008
1605.55,-0.11976
1605.56,-0.12048
1605.57,-0.11986
1605.58,-0.12075
1605.59,-0.12073
1605.6,-0.12055
1605.61,-0.12104
1605.62,-0.12109
1605.63,-0.12035
1605.64,-0.12025
1605.65,-0.12034
1605.66,-0.12029
1605.67,-0.12073
1605.68,-0.12095
1605.69,-0.12064
1605.7,-0.12075
1605.71,-0.12106
1605.72,-0.1209
1605.73,-0.12112
1605.74,-0.12137
1605.75,-0.12145
1605.76,-0.1207
1605.77,-0.12041
1605.78,-0.12131
1605.79,-0.12074
1605.8,-0.1207
1605.81,-0.12127
1605.82,-0.12163
1605.83,-0.12122
1605.84,-0.12151
1605.85,-0.12068
1605.86,-0.12134
1605.87,-0.12099
1605.88,-0.12085
1605.89,-0.12069
1605.9,-0.12079
1605.91,-0.1209
1605.92,-0.12108
1605.93,-0.12145
1605.94,-0.12143
1605.95,-0.12208
1605.96,-0.12172
1605.97,-0.12102
1605.98,-0.12091
1605.99,-0.12052
1606,-0.12157
1606.01,-0.1214
1606.02,-0.12118
1606.03,-0.12186
1606.04,-0.12191
1606.05,-0.12168
1606.06,-0.12159
1606.07,-0.12159
1606.08,-0.12151
1606.09,-0.12164
1606.1,-0.12121
1606.11,-0.121
1606.12,-0.12104
1606.13,-0.1214
1606.14,-0.12123
1606.15,-0.12169
1606.16,-0.12155
1606.17,-0.12247
1606.18,-0.1212
1606.19,-0.12158
1606.2,-0.12158
1606.21,-0.12108
1606.22,-0.12145
1606.23,-0.12119
1606.24,-0.12124
1606.25,-0.12122
1606.26,-0.12154
1606.27,-0.12169
1606.28,-0.12133
1606.29,-0.12166
1606.3,-0.12143
1606.31,-0.12109
1606.32,-0.12132
1606.33,-0.12137
1606.34,-0.12104
1606.35,-0.12103
1606.36,-0.12116
1606.37,-0.12086
1606.38,-0.12148
1606.39,-0.12168
1606.4,-0.12128
1606.41,-0.12146
1606.42,-0.12093
1606.43,-0.12086
1606.44,-0.12103
1606.45,-0.1212
1606.46,-0.1215
1606.47,-0.12062
1606.48,-0.12138
1606.49,-0.12158
1606.5,-0.12156
1606.51,-0.12132
1606.52,-0.12167
1606.53,-0.12096
1606.54,-0.12109
1606.55,-0.12128
1606.56,-0.12125
1606.57,-0.12134
1606.58,-0.12185
1606.59,-0.12176
1606.6,-0.12168
1606.61,-0.12159
1606.62,-0.12155
1606.63,-0.12155
1606.64,-0.12163
1606.65,-0.12161
1606.66,-0.12137
1606.67,-0.12167
1606.68,-0.12172
1606.69,-0.12171
1606.7,-0.12205
1606.71,-0.12215
1606.72,-0.12174
1606.73,-0.12264
1606.74,-0.12236
1606.75,-0.12207
1606.76,-0.12195
1606.77,-0.12167
1606.78,-0.12187
1606.79,-0.12192
1606.8,-0.12215
1606.81,-0.1222
1606.82,-0.12266
1606.83,-0.12306
1606.84,-0.12222
1606.85,-0.12254
1606.86,-0.12207
1606.87,-0.12258
1606.88,-0.12213
1606.89,-0.12197
1606.9,-0.12277
1606.91,-0.12223
1606.92,-0.12275
1606.93,-0.12268
1606.94,-0.12279
1606.95,-0.1231
1606.96,-0.12348
1606.97,-0.1227
1606.98,-0.12274
1606.99,-0.12256
1607,-0.12262
1607.01,-0.12214
1607.02,-0.12312
1607.03,-0.12258
1607.04,-0.12298
1607.05,-0.12318
1607.06,-0.12279
1607.07,-0.12359
1607.08,-0.12233
1607.09,-0.12338
1607.1,-0.12252
1607.11,-0.12266
1607.12,-0.12249
1607.13,-0.12302
1607.14,-0.12274
1607.15,-0.12284
1607.16,-0.12314
1607.17,-0.12335
1607.18,-0.12338
1607.19,-0.12343
1607.2,-0.12338
1607.21,-0.12264
1607.22,-0.12281
1607.23,-0.12311
1607.24,-0.12263
1607.25,-0.12302
1607.26,-0.12256
1607.27,-0.12316
1607.28,-0.12344
1607.29,-0.12318
1607.3,-0.12265
1607.31,-0.12264
1607.32,-0.12274
1607.33,-0.12236
1607.34,-0.12221
1607.35,-0.12269
1607.36,-0.12263
1607.37,-0.12253
1607.38,-0.12273
1607.39,-0.12274
1607.4,-0.12308
1607.41,-0.12244
1607.42,-0.12263
1607.43,-0.12216
1607.44,-0.12229
1607.45,-0.12213
1607.46,-0.12236
1607.47,-0.12178
1607.48,-0.12294
1607.49,-0.12287
1607.5,-0.12199
1607.51,-0.12307
1607.52,-0.12273
1607.53,-0.12219
1607.54,-0.12203
1607.55,-0.12172
1607.56,-0.12208
1607.57,-0.12154
1607.58,-0.12249
1607.59,-0.12167
1607.6,-0.12207
1607.61,-0.12224
1607.62,-0.12234
1607.63,-0.12153
1607.64,-0.12272
1607.65,-0.12157
1607.66,-0.12136
1607.67,-0.12209
1607.68,-0.12137
1607.69,-0.12214
1607.7,-0.12153
1607.71,-0.12264
1607.72,-0.12224
1607.73,-0.12232
1607.74,-0.12226
1607.75,-0.12206
1607.76,-0.12228
1607.77,-0.12137
1607.78,-0.1215
1607.79,-0.12207
1607.8,-0.12152
1607.81,-0.1218
1607.82,-0.12237
1607.83,-0.12258
1607.84,-0.12201
1607.85,-0.12235
1607.86,-0.1228
1607.87,-0.12181
1607.88,-0.12225
1607.89,-0.12179
1607.9,-0.12212
1607.91,-0.122
1607.92,-0.12188
1607.93,-0.12225
1607.94,-0.12248
1607.95,-0.12271
1607.96,-0.12272
1607.97,-0.12253
1607.98,-0.12275
1607.99,-0.12221
1608,-0.12272
1608.01,-0.12213
1608.02,-0.12236
1608.03,-0.12249
1608.04,-0.12228
1608.05,-0.12314
1608.06,-0.1229
1608.07,-0.12304
1608.08,-0.12308
1608.09,-0.1226
1608.1,-0.12256
1608.11,-0.12231
1608.12,-0.12275
1608.13,-0.12259
1608.14,-0.12253
1608.15,-0.12249
1608.16,-0.12296
1608.17,-0.12329
1608.18,-0.12328
1608.19,-0.12308
1608.2,-0.12294
1608.21,-0.12297
1608.22,-0.12292
1608.23,-0.12276
1608.24,-0.123
1608.25,-0.12338
1608.26,-0.12253
1608.27,-0.12311
1608.28,-0.12365
1608.29,-0.1229
1608.3,-0.12354
1608.31,-0.12346
1608.32,-0.12311
1608.33,-0.12329
1608.34,-0.12264
1608.35,-0.12398
1608.36,-0.12283
1608.37,-0.12316
1608.38,-0.12336
1608.39,-0.12343
1608.4,-0.12341
1608.41,-0.12359
1608.42,-0.12304
1608.43,-0.12263
1608.44,-0.12318
1608.45,-0.12282
1608.46,-0.12277
1608.47,-0.12244
1608.48,-0.12356
1608.49,-0.12284
1608.5,-0.123
1608.51,-0.12351
1608.52,-0.12312
1608.53,-0.12308
1608.54,-0.1226
1608.55,-0.12265
1608.56,-0.1222
1608.57,-0.12223
1608.58,-0.12245
1608.59,-0.12307
1608.6,-0.12293
1608.61,-0.12312
1608.62,-0.12284
1608.63,-0.12298
1608.64,-0.12273
1608.65,-0.12257
1608.66,-0.12241
1608.67,-0.12226
1608.68,-0.12243
1608.69,-0.12232
1608.7,-0.12178
1608.71,-0.1226
1608.72,-0.12334
1608.73,-0.12188
1608.74,-0.12262
1608.75,-0.12227
1608.76,-0.12243
1608.77,-0.12216
1608.78,-0.12205
1608.79,-0.1221
1608.8,-0.12221
1608.81,-0.12191
1608.82,-0.12227
1608.83,-0.12238
1608.84,-0.12195
1608.85,-0.12262
1608.86,-0.12212
1608.87,-0.12257
1608.88,-0.12207
1608.89,-0.12189
1608.9,-0.12158
1608.91,-0.1216
1608.92,-0.12204
1608.93,-0.12125
1608.94,-0.12187
1608.95,-0.12221
1608.96,-0.12206
1608.97,-0.12227
1608.98,-0.12225
1608.99,-0.12225
1609,-0.12177
1609.01,-0.12193
1609.02,-0.12204
1609.03,-0.12177
1609.04,-0.12179
1609.05,-0.12224
1609.06,-0.12218
1609.07,-0.12232
1609.08,-0.12285
1609.09,-0.12228
1609.1,-0.12253
1609.11,-0.12193
1609.12,-0.12162
1609.13,-0.12222
1609.14,-0.12165
1609.15,-0.12203
1609.16,-0.12285
1609.17,-0.1226
1609.18,-0.12275
1609.19,-0.1224
1609.2,-0.12245
1609.21,-0.12244
1609.22,-0.12165
1609.23,-0.12259
1609.24,-0.12245
1609.25,-0.12256
1609.26,-0.12252
1609.27,-0.12197
1609.28,-0.12281
1609.29,-0.12251
1609.3,-0.12302
1609.31,-0.12302
1609.32,-0.12259
1609.33,-0.12272
1609.34,-0.12271
1609.35,-0.1224
1609.36,-0.12266
1609.37,-0.12254
1609.38,-0.12272
1609.39,-0.12263
1609.4,-0.12334
1609.41,-0.12349
1609.42,-0.12313
1609.43,-0.12326
1609.44,-0.12279
1609.45,-0.12271
1609.46,-0.12317
1609.47,-0.12273
1609.48,-0.12325
1609.49,-0.12294
1609.5,-0.12311
1609.51,-0.12315
1609.52,-0.12322
1609.53,-0.12324
1609.54,-0.12369
1609.55,-0.12312
1609.56,-0.12265
1609.57,-0.12319
1609.58,-0.12258
1609.59,-0.12342
1609.6,-0.12341
1609.61,-0.12333
1609.62,-0.12373
1609.63,-0.12364
1609.64,-0.12352
1609.65,-0.12306
1609.66,-0.12319
1609.67,-0.12276
1609.68,-0.1234
1609.69,-0.12302
1609.7,-0.12317
1609.71,-0.12342
1609.72,-0.12328
1609.73,-0.12354
1609.74,-0.12368
1609.75,-0.12386
1609.76,-0.12363
1609.77,-0.12352
1609.78,-0.12308
1609.79,-0.12362
1609.8,-0.12288
1609.81,-0.1235
1609.82,-0.12337
1609.83,-0.12339
1609.84,-0.12382
1609.85,-0.12411
1609.86,-0.12358
1609.87,-0.12348
1609.88,-0.12382
1609.89,-0.12336
1609.9,-0.12298
1609.91,-0.12349
1609.92,-0.12332
1609.93,-0.12373
1609.94,-0.12363
1609.95,-0.12373
1609.96,-0.12277
1609.97,-0.12534
1609.98,-0.12343
1609.99,-0.12326
1610,-0.12312
1610.01,-0.12323
1610.02,-0.12308
1610.03,-0.12336
1610.04,-0.12376
1610.05,-0.12363
1610.06,-0.12363
1610.07,-0.12399
1610.08,-0.12396
1610.09,-0.12446
1610.1,-0.1238
1610.11,-0.12364
1610.12,-0.12343
1610.13,-0.12384
1610.14,-0.12337
1610.15,-0.12341
1610.16,-0.124
1610.17,-0.12383
1610.18,-0.1238
1610.19,-0.12442
1610.2,-0.12442
1610.21,-0.12372
1610.22,-0.12394
1610.23,-0.12352
1610.24,-0.12413
1610.25,-0.12374
1610.26,-0.1239
1610.27,-0.12382
1610.28,-0.12444
1610.29,-0.1242
1610.3,-0.12452
1610.31,-0.12456
1610.32,-0.12412
1610.33,-0.1239
1610.34,-0.12487
1610.35,-0.12403
1610.36,-0.12367
1610.37,-0.12408
1610.38,-0.12425
1610.39,-0.12417
1610.4,-0.12423
1610.41,-0.12448
1610.42,-0.12497
1610.43,-0.1247
1610.44,-0.12408
1610.45,-0.12421
1610.46,-0.12381
1610.47,-0.12398
1610.48,-0.12348
1610.49,-0.12496
1610.5,-0.12439
1610.51,-0.12463
1610.52,-0.12396
1610.53,-0.12451
1610.54,-0.12428
1610.55,-0.12479
1610.56,-0.12451
1610.57,-0.12407
1610.58,-0.12404
1610.59,-0.12401
1610.6,-0.12435
1610.61,-0.12446
1610.62,-0.12447
1610.63,-0.12459
1610.64,-0.12426
1610.65,-0.12485
1610.66,-0.12447
1610.67,-0.12426
1610.68,-0.1244
1610.69,-0.12389
1610.7,-0.12379
1610.71,-0.12431
1610.72,-0.12411
1610.73,-0.12421
1610.74,-0.12461
1610.75,-0.12441
1610.76,-0.12456
1610.77,-0.12422
1610.78,-0.12425
1610.79,-0.12388
1610.8,-0.1242
1610.81,-0.12416
1610.82,-0.12393
1610.83,-0.12397
1610.84,-0.12457
1610.85,-0.12395
1610.86,-0.12449
1610.87,-0.12391
1610.88,-0.12403
1610.89,-0.12433
1610.9,-0.12415
1610.91,-0.12395
1610.92,-0.12434
1610.93,-0.1236
1610.94,-0.12398
1610.95,-0.12365
1610.96,-0.12401
1610.97,-0.12386
1610.98,-0.12446
1610.99,-0.12439
1611,-0.12391
1611.01,-0.12414
1611.02,-0.12384
1611.03,-0.12385
1611.04,-0.12419
1611.05,-0.12458
1611.06,-0.12392
1611.07,-0.12482
1611.08,-0.12425
1611.09,-0.12475
1611.1,-0.12468
1611.11,-0.12464
1611.12,-0.12444
1611.13,-0.12427
1611.14,-0.12441
1611.15,-0.12394
1611.16,-0.12467
1611.17,-0.12473
1611.18,-0.125
1611.19,-0.12506
1611.2,-0.12492
1611.21,-0.12509
1611.22,-0.12541
1611.23,-0.12462
1611.24,-0.12461
1611.25,-0.12486
1611.26,-0.12467
1611.27,-0.12474
1611.28,-0.12519
1611.29,-0.12469
1611.3,-0.1257
1611.31,-0.12536
1611.32,-0.12513
1611.33,-0.12548
1611.34,-0.12514
1611.35,-0.12486
1611.36,-0.12531
1611.37,-0.12541
1611.38,-0.12544
1611.39,-0.12505
1611.4,-0.12523
1611.41,-0.12548
1611.42,-0.12593
1611.43,-0.12579
1611.44,-0.12616
1611.45,-0.12496
1611.46,-0.12569
1611.47,-0.12529
1611.48,-0.12512
1611.49,-0.12568
1611.5,-0.12568
1611.51,-0.12582
1611.52,-0.12587
1611.53,-0.12594
1611.54,-0.12616
1611.55,-0.12607
1611.56,-0.12601
1611.57,-0.12576
1611.58,-0.12539
1611.59,-0.12576
1611.6,-0.12551
1611.61,-0.12611
1611.62,-0.1255
1611.63,-0.12594
1611.64,-0.12641
1611.65,-0.12558
1611.66,-0.12593
1611.67,-0.12554
1611.68,-0.12591
1611.69,-0.12529
1611.7,-0.12535
1611.71,-0.12535
1611.72,-0.12547
1611.73,-0.12524
1611.74,-0.12559
1611.75,-0.12542
1611.76,-0.12595
1611.77,-0.12584
1611.78,-0.12573
1611.79,-0.1251
1611.8,-0.12545
1611.81,-0.1244
1611.82,-0.12518
1611.83,-0.12477
1611.84,-0.12529
1611.85,-0.12514
1611.86,-0.12507
1611.87,-0.12537
1611.88,-0.12539
1611.89,-0.12512
1611.9,-0.12465
1611.91,-0.12504
1611.92,-0.12454
1611.93,-0.12436
1611.94,-0.12458
1611.95,-0.12474
1611.96,-0.12487
1611.97,-0.12491
1611.98,-0.1248
1611.99,-0.12484
1612,-0.12482
1612.01,-0.12462
1612.02,-0.12431
1612.03,-0.12425
1612.04,-0.12381
1612.05,-0.1243
1612.06,-0.12375
1612.07,-0.12483
1612.08,-0.12405
1612.09,-0.12453
1612.1,-0.12461
1612.11,-0.12425
1612.12,-0.12388
1612.13,-0.12419
1612.14,-0.12357
1612.15,-0.12423
1612.16,-0.12339
1612.17,-0.12404
1612.18,-0.12372
1612.19,-0.12456
1612.2,-0.12422
1612.21,-0.1244
1612.22,-0.12434
1612.23,-0.12452
1612.24,-0.12382
1612.25,-0.12378
1612.26,-0.12403
1612.27,-0.12336
1612.28,-0.12412
1612.29,-0.12411
1612.3,-0.12422
1612.31,-0.12446
1612.32,-0.12453
1612.33,-0.12435
1612.34,-0.12424
1612.35,-0.12415
1612.36,-0.12392
1612.37,-0.12394
1612.38,-0.12423
1612.39,-0.12454
1612.4,-0.12427
1612.41,-0.12454
1612.42,-0.12475
1612.43,-0.12443
1612.44,-0.12496
1612.45,-0.12437
1612.46,-0.12385
1612.47,-0.12423
1612.48,-0.12407
1612.49,-0.1243
1612.5,-0.12449
1612.51,-0.12426
1612.52,-0.12487
1612.53,-0.12498
1612.54,-0.12482
1612.55,-0.12523
1612.56,-0.12478
1612.57,-0.12508
1612.58,-0.12443
1612.59,-0.12459
1612.6,-0.12489
1612.61,-0.12447
1612.62,-0.1248
1612.63,-0.12487
1612.64,-0.12564
1612.65,-0.12528
1612.66,-0.12552
1612.67,-0.12533
1612.68,-0.12539
1612.69,-0.12534
1612.7,-0.12513
1612.71,-0.1255
1612.72,-0.12533
1612.73,-0.12534
1612.74,-0.12568
1612.75,-0.12586
1612.76,-0.1258
1612.77,-0.12559
1612.78,-0.12563
1612.79,-0.1253
1612.8,-0.12537
1612.81,-0.12526
1612.82,-0.12532
1612.83,-0.12536
1612.84,-0.12584
1612.85,-0.12552
1612.86,-0.12594
1612.87,-0.12541
1612.88,-0.12613
1612.89,-0.12554
1612.9,-0.12533
1612.91,-0.12569
1612.92,-0.12552
1612.93,-0.12535
1612.94,-0.12565
1612.95,-0.12525
1612.96,-0.12555
1612.97,-0.12591
1612.98,-0.12568
1612.99,-0.12614
1613,-0.12569
1613.01,-0.12592
1613.02,-0.12549
1613.03,-0.12563
1613.04,-0.12511
1613.05,-0.12543
1613.06,-0.12542
1613.07,-0.12486
1613.08,-0.12516
1613.09,-0.12559
1613.1,-0.12568
1613.11,-0.12569
1613.12,-0.12503
1613.13,-0.12512
1613.14,-0.12548
1613.15,-0.12477
1613.16,-0.12548
1613.17,-0.12474
1613.18,-0.12541
1613.19,-0.12496
1613.2,-0.12541
1613.21,-0.12459
1613.22,-0.12671
1613.23,-0.12477
1613.24,-0.1252
1613.25,-0.12473
1613.26,-0.12456
1613.27,-0.125
1613.28,-0.1248
1613.29,-0.12519
1613.3,-0.12486
1613.31,-0.1252
1613.32,-0.12496
1613.33,-0.12521
1613.34,-0.12559
1613.35,-0.12529
1613.36,-0.12486
1613.37,-0.12421
1613.38,-0.12518
1613.39,-0.12461
1613.4,-0.12499
1613.41,-0.1252
1613.42,-0.12574
1613.43,-0.12549
1613.44,-0.12515
1613.45,-0.12591
1613.46,-0.12527
1613.47,-0.12551
1613.48,-0.125
1613.49,-0.12485
1613.5,-0.12513
1613.51,-0.12499
1613.52,-0.12489
1613.53,-0.12531
1613.54,-0.12542
1613.55,-0.12574
1613.56,-0.12571
1613.57,-0.12499
1613.58,-0.12538
1613.59,-0.12488
1613.6,-0.1251
1613.61,-0.12493
1613.62,-0.12503
1613.63,-0.12516
1613.64,-0.12545
1613.65,-0.12561
1613.66,-0.1256
1613.67,-0.12609
1613.68,-0.12538
1613.69,-0.12522
1613.7,-0.12558
1613.71,-0.12518
1613.72,-0.12539
1613.73,-0.12577
1613.74,-0.12542
1613.75,-0.12562
1613.76,-0.12572
1613.77,-0.12569
1613.78,-0.12631
1613.79,-0.12581
1613.8,-0.12573
1613.81,-0.12597
1613.82,-0.1256
1613.83,-0.12585
1613.84,-0.12601
1613.85,-0.12602
1613.86,-0.12611
1613.87,-0.12659
1613.88,-0.12589
1613.89,-0.12634
1613.9,-0.12646
1613.91,-0.12639
1613.92,-0.12614
1613.93,-0.12634
1613.94,-0.12589
1613.95,-0.12608
1613.96,-0.12604
1613.97,-0.12663
1613.98,-0.12626
1613.99,-0.12639
1614,-0.12678
1614.01,-0.12673
1614.02,-0.12653
1614.03,-0.12636
1614.04,-0.12591
1614.05,-0.12626
1614.06,-0.12607
1614.07,-0.12596
1614.08,-0.12684
1614.09,-0.12621
1614.1,-0.1265
1614.11,-0.12644
1614.12,-0.12692
1614.13,-0.12638
1614.14,-0.1261
1614.15,-0.12623
1614.16,-0.12621
1614.17,-0.12592
1614.18,-0.12637
1614.19,-0.12657
1614.2,-0.1264
1614.21,-0.12668
1614.22,-0.12667
1614.23,-0.1268
1614.24,-0.12646
1614.25,-0.12625
1614.26,-0.12589
1614.27,-0.12617
1614.28,-0.12598
1614.29,-0.12585
1614.3,-0.12632
1614.31,-0.12593
1614.32,-0.12722
1614.33,-0.12605
1614.34,-0.12665
1614.35,-0.12687
1614.36,-0.12607
1614.37,-0.12573
1614.38,-0.12632
1614.39,-0.1263
1614.4,-0.12619
1614.41,-0.12608
1614.42,-0.12603
1614.43,-0.12606
1614.44,-0.12611
1614.45,-0.12626
1614.46,-0.12598
1614.47,-0.12602
1614.48,-0.12595
1614.49,-0.12645
1614.5,-0.12545
1614.51,-0.12564
1614.52,-0.12654
1614.53,-0.12603
1614.54,-0.12627
1614.55,-0.12644
1614.56,-0.1268
1614.57,-0.12657
1614.58,-0.12674
1614.59,-0.12633
1614.6,-0.12602
1614.61,-0.12601
1614.62,-0.12577
1614.63,-0.12623
1614.64,-0.1263
1614.65,-0.12695
1614.66,-0.12638
1614.67,-0.12654
1614.68,-0.12677
1614.69,-0.1262
1614.7,-0.12634
1614.71,-0.12599
1614.72,-0.12626
1614.73,-0.12595
1614.74,-0.12672
1614.75,-0.126
1614.76,-0.12638
1614.77,-0.12722
1614.78,-0.1266
1614.79,-0.12688
1614.8,-0.12639
1614.81,-0.12602
1614.82,-0.12674
1614.83,-0.12652
1614.84,-0.12651
1614.85,-0.12652
1614.86,-0.1266
1614.87,-0.1265
1614.88,-0.12707
1614.89,-0.12707
1614.9,-0.12676
1614.91,-0.12677
1614.92,-0.12659
1614.93,-0.12647
1614.94,-0.12622
1614.95,-0.12599
1614.96,-0.12712
1614.97,-0.12681
1614.98,-0.12633
1614.99,-0.12653
1615,-0.1277
1615.01,-0.12742
1615.02,-0.12711
1615.03,-0.12702
1615.04,-0.12655
1615.05,-0.12685
1615.06,-0.12637
1615.07,-0.12701
1615.08,-0.1272
1615.09,-0.12698
1615.1,-0.12731
1615.11,-0.12705
1615.12,-0.12767
1615.13,-0.12756
1615.14,-0.12726
1615.15,-0.12688
1615.16,-0.12725
1615.17,-0.12669
1615.18,-0.1267
1615.19,-0.12718
1615.2,-0.12705
1615.21,-0.12714
1615.22,-0.12756
1615.23,-0.12721
1615.24,-0.12685
1615.25,-0.12692
1615.26,-0.12696
1615.27,-0.12688
1615.28,-0.12654
1615.29,-0.12669
1615.3,-0.12666
1615.31,-0.12708
1615.32,-0.12677
1615.33,-0.1275
1615.34,-0.12701
1615.35,-0.12734
1615.36,-0.12632
1615.37,-0.12693
1615.38,-0.12616
1615.39,-0.12633
1615.4,-0.12666
1615.41,-0.12678
1615.42,-0.12662
1615.43,-0.12709
1615.44,-0.12695
1615.45,-0.12732
1615.46,-0.12714
1615.47,-0.12734
1615.48,-0.12682
1615.49,-0.12639
1615.5,-0.12627
1615.51,-0.12666
1615.52,-0.12643
1615.53,-0.1269
1615.54,-0.12681
1615.55,-0.12724
1615.56,-0.12704
1615.57,-0.12689
1615.58,-0.12707
1615.59,-0.12691
1615.6,-0.12657
1615.61,-0.12681
1615.62,-0.12659
1615.63,-0.12677
1615.64,-0.12632
1615.65,-0.12672
1615.66,-0.12703
1615.67,-0.12725
1615.68,-0.12729
1615.69,-0.12678
1615.7,-0.12676
1615.71,-0.12626
1615.72,-0.12773
1615.73,-0.12601
1615.74,-0.12683
1615.75,-0.12624
1615.76,-0.12719
1615.77,-0.12676
1615.78,-0.12686
1615.79,-0.12709
1615.8,-0.12651
1615.81,-0.12718
1615.82,-0.12692
1615.83,-0.12665
1615.84,-0.12702
1615.85,-0.12627
1615.86,-0.12694
1615.87,-0.12697
1615.88,-0.12655
1615.89,-0.12732
1615.9,-0.12721
1615.91,-0.12729
1615.92,-0.12695
1615.93,-0.12645
1615.94,-0.12702
1615.95,-0.12627
1615.96,-0.1269
1615.97,-0.12676
1615.98,-0.12679
1615.99,-0.12662
1616,-0.12683
1616.01,-0.12715
1616.02,-0.12755
1616.03,-0.12701
1616.04,-0.12659
1616.05,-0.12694
1616.06,-0.12663
1616.07,-0.12672
1616.08,-0.12691
1616.09,-0.12664
1616.1,-0.12735
1616.11,-0.12689
1616.12,-0.12706
1616.13,-0.12757
1616.14,-0.12696
1616.15,-0.1269
1616.16,-0.12677
1616.17,-0.12644
1616.18,-0.12698
1616.19,-0.12689
1616.2,-0.12674
1616.21,-0.12642
1616.22,-0.12807
1616.23,-0.12617
1616.24,-0.12745
1616.25,-0.12717
1616.26,-0.12701
1616.27,-0.12655
1616.28,-0.12722
1616.29,-0.12657
1616.3,-0.12695
1616.31,-0.12679
1616.32,-0.12709
1616.33,-0.12709
1616.34,-0.12683
1616.35,-0.12697
1616.36,-0.12698
1616.37,-0.12697
1616.38,-0.12677
1616.39,-0.12645
1616.4,-0.12659
1616.41,-0.12664
1616.42,-0.12655
1616.43,-0.1267
1616.44,-0.12675
1616.45,-0.12677
1616.46,-0.12696
1616.47,-0.12702
1616.48,-0.12674
1616.49,-0.1262
1616.5,-0.12669
1616.51,-0.12638
1616.52,-0.12631
1616.53,-0.12674
1616.54,-0.12671
1616.55,-0.12658
1616.56,-0.12693
1616.57,-0.1271
1616.58,-0.12708
1616.59,-0.12656
1616.6,-0.1266
1616.61,-0.12627
1616.62,-0.12671
1616.63,-0.1262
1616.64,-0.12681
1616.65,-0.12649
1616.66,-0.12704
1616.67,-0.1265
1616.68,-0.12682
1616.69,-0.12695
1616.7,-0.12717
1616.71,-0.1271
1616.72,-0.12635
1616.73,-0.12662
1616.74,-0.12654
1616.75,-0.12659
1616.76,-0.12759
1616.77,-0.12696
1616.78,-0.12693
1616.79,-0.12717
1616.8,-0.12798
1616.81,-0.12724
1616.82,-0.12744
1616.83,-0.12686
1616.84,-0.12735
1616.85,-0.12686
1616.86,-0.12706
1616.87,-0.12687
1616.88,-0.1271
1616.89,-0.12764
1616.9,-0.12754
1616.91,-0.1277
1616.92,-0.12716
1616.93,-0.12736
1616.94,-0.12741
1616.95,-0.12721
1616.96,-0.12754
1616.97,-0.12644
1616.98,-0.1278
1616.99,-0.1277
1617,-0.12782
1617.01,-0.12781
1617.02,-0.12826
1617.03,-0.12817
1617.04,-0.12777
1617.05,-0.1276
1617.06,-0.12799
1617.07,-0.12732
1617.08,-0.12774
1617.09,-0.12819
1617.1,-0.12814
1617.11,-0.12817
1617.12,-0.12853
1617.13,-0.12846
1617.14,-0.12829
1617.15,-0.12806
1617.16,-0.12841
1617.17,-0.12806
1617.18,-0.1284
1617.19,-0.12856
1617.2,-0.1286
1617.21,-0.12835
1617.22,-0.12901
1617.23,-0.12827
1617.24,-0.12968
1617.25,-0.12879
1617.26,-0.12888
1617.27,-0.1285
1617.28,-0.12874
1617.29,-0.12865
1617.3,-0.12814
1617.31,-0.12859
1617.32,-0.12932
1617.33,-0.12878
1617.34,-0.12903
1617.35,-0.12895
1617.36,-0.12898
1617.37,-0.12898
1617.38,-0.12855
1617.39,-0.12868
1617.4,-0.12846
1617.41,-0.12864
1617.42,-0.12828
1617.43,-0.12869
1617.44,-0.12824
1617.45,-0.12914
1617.46,-0.12833
1617.47,-0.12915
1617.48,-0.12885
1617.49,-0.12848
1617.5,-0.12849
1617.51,-0.12841
1617.52,-0.12878
1617.53,-0.12861
1617.54,-0.12858
1617.55,-0.12874
1617.56,-0.12841
1617.57,-0.12912
1617.58,-0.12857
1617.59,-0.12889
1617.6,-0.12843
1617.61,-0.12828
1617.62,-0.12841
1617.63,-0.12803
1617.64,-0.12831
1617.65,-0.12779
1617.66,-0.12808
1617.67,-0.12827
1617.68,-0.12842
1617.69,-0.12843
1617.7,-0.12889
1617.71,-0.12796
1617.72,-0.12869
1617.73,-0.1277
1617.74,-0.12754
1617.75,-0.12818
1617.76,-0.128
1617.77,-0.12845
1617.78,-0.12826
1617.79,-0.12766
1617.8,-0.12868
1617.81,-0.12815
1617.82,-0.128
1617.83,-0.12801
1617.84,-0.12762
1617.85,-0.12801
1617.86,-0.12824
1617.87,-0.12778
1617.88,-0.12786
1617.89,-0.12774
1617.9,-0.12827
1617.91,-0.12847
1617.92,-0.12852
1617.93,-0.12781
1617.94,-0.12798
1617.95,-0.12796
1617.96,-0.12777
1617.97,-0.12785
1617.98,-0.12796
1617.99,-0.12794
1618,-0.12849
1618.01,-0.12826
1618.02,-0.12852
1618.03,-0.12844
1618.04,-0.12864
1618.05,-0.1276
1618.06,-0.12802
1618.07,-0.12807
1618.08,-0.1276
1618.09,-0.12827
1618.1,-0.12831
1618.11,-0.12851
1618.12,-0.12853
1618.13,-0.12875
1618.14,-0.12911
1618.15,-0.12876
1618.16,-0.12852
1618.17,-0.12867
1618.18,-0.12838
1618.19,-0.12866
1618.2,-0.12856
1618.21,-0.12882
1618.22,-0.12859
1618.23,-0.12954
1618.24,-0.12906
1618.25,-0.12943
1618.26,-0.12889
1618.27,-0.12897
1618.28,-0.1293
1618.29,-0.12884
1618.3,-0.12915
1618.31,-0.12906
1618.32,-0.12926
1618.33,-0.12969
1618.34,-0.12954
1618.35,-0.12985
1618.36,-0.12981
1618.37,-0.13004
1618.38,-0.12965
1618.39,-0.1297
1618.4,-0.12974
1618.41,-0.12946
1618.42,-0.12943
1618.43,-0.12949
1618.44,-0.12994
1618.45,-0.13006
1618.46,-0.12982
1618.47,-0.13033
1618.48,-0.13008
1618.49,-0.13015
1618.5,-0.13024
1618.51,-0.13004
1618.52,-0.12988
1618.53,-0.1298
1618.54,-0.13
1618.55,-0.13025
1618.56,-0.13063
1618.57,-0.13096
1618.58,-0.13015
1618.59,-0.13085
1618.6,-0.13045
1618.61,-0.12968
1618.62,-0.13054
1618.63,-0.12962
1618.64,-0.13012
1618.65,-0.13022
1618.66,-0.12988
1618.67,-0.13025
1618.68,-0.13078
1618.69,-0.13056
1618.7,-0.13072
1618.71,-0.13002
1618.72,-0.12986
1618.73,-0.13016
1618.74,-0.12968
1618.75,-0.12928
1618.76,-0.13031
1618.77,-0.1296
1618.78,-0.13036
1618.79,-0.13004
1618.8,-0.13018
1618.81,-0.13019
1618.82,-0.1297
1618.83,-0.12992
1618.84,-0.12923
1618.85,-0.12981
1618.86,-0.12922
1618.87,-0.12919
1618.88,-0.12923
1618.89,-0.12959
1618.9,-0.12958
1618.91,-0.12954
1618.92,-0.12931
1618.93,-0.12997
1618.94,-0.12923
1618.95,-0.12951
1618.96,-0.12889
1618.97,-0.12898
1618.98,-0.12891
1618.99,-0.12909
1619,-0.12952
1619.01,-0.12893
1619.02,-0.12963
1619.03,-0.12906
1619.04,-0.12979
1619.05,-0.12897
1619.06,-0.12889
1619.07,-0.12863
1619.08,-0.1289
1619.09,-0.12879
1619.1,-0.12893
1619.11,-0.12915
1619.12,-0.12859
1619.13,-0.12916
1619.14,-0.12942
1619.15,-0.12966
1619.16,-0.12896
1619.17,-0.12841
1619.18,-0.12924
1619.19,-0.12852
1619.2,-0.12875
1619.21,-0.12858
1619.22,-0.12878
1619.23,-0.12942
1619.24,-0.12897
1619.25,-0.1293
1619.26,-0.12877
1619.27,-0.12928
1619.28,-0.12867
1619.29,-0.12875
1619.3,-0.12832
1619.31,-0.12865
1619.32,-0.1289
1619.33,-0.12892
1619.34,-0.12908
1619.35,-0.12918
1619.36,-0.12859
1619.37,-0.12913
1619.38,-0.12863
1619.39,-0.12896
1619.4,-0.12827
1619.41,-0.12907
1619.42,-0.1288
1619.43,-0.12855
1619.44,-0.12894
1619.45,-0.12887
1619.46,-0.12903
1619.47,-0.12922
1619.48,-0.12967
1619.49,-0.12911
1619.5,-0.1295
1619.51,-0.12892
1619.52,-0.12887
1619.53,-0.12927
1619.54,-0.12897
1619.55,-0.12916
1619.56,-0.12925
1619.57,-0.12958
1619.58,-0.12965
1619.59,-0.12969
1619.6,-0.12921
1619.61,-0.12975
1619.62,-0.12951
1619.63,-0.12893
1619.64,-0.12927
1619.65,-0.12877
1619.66,-0.12956
1619.67,-0.12995
1619.68,-0.12984
1619.69,-0.12948
1619.7,-0.12974
1619.71,-0.13012
1619.72,-0.13006
1619.73,-0.12958
1619.74,-0.12959
1619.75,-0.12944
1619.76,-0.12955
1619.77,-0.12951
1619.78,-0.12973
1619.79,-0.12975
1619.8,-0.13002
1619.81,-0.13036
1619.82,-0.13027
1619.83,-0.13022
1619.84,-0.12994
1619.85,-0.12985
1619.86,-0.12975
1619.87,-0.13
1619.88,-0.12967
1619.89,-0.12983
1619.9,-0.13015
1619.91,-0.13016
1619.92,-0.13018
1619.93,-0.13003
1619.94,-0.13013
1619.95,-0.13001
1619.96,-0.12971
1619.97,-0.1299
1619.98,-0.12953
1619.99,-0.12976
1620,-0.13001
1620.01,-0.1302
1620.02,-0.13017
1620.03,-0.13004
1620.04,-0.1302
1620.05,-0.13025
1620.06,-0.12974
1620.07,-0.12922
1620.08,-0.12981
1620.09,-0.12897
1620.1,-0.13002
1620.11,-0.12942
1620.12,-0.12975
1620.13,-0.12979
1620.14,-0.12983
1620.15,-0.12959
1620.16,-0.13001
1620.17,-0.13005
1620.18,-0.1298
1620.19,-0.12942
1620.2,-0.12969
1620.21,-0.12868
1620.22,-0.12959
1620.23,-0.12959
1620.24,-0.12965
1620.25,-0.1301
1620.26,-0.1303
1620.27,-0.13017
1620.28,-0.12886
1620.29,-0.13073
1620.3,-0.13067
1620.31,-0.13055
1620.32,-0.13053
1620.33,-0.13041
1620.34,-0.1303
1620.35,-0.13048
1620.36,-0.13043
1620.37,-0.13062
1620.38,-0.13074
1620.39,-0.13013
1620.4,-0.13025
1620.41,-0.13024
1620.42,-0.13
1620.43,-0.12996
1620.44,-0.13034
1620.45,-0.13059
1620.46,-0.13084
1620.47,-0.13062
1620.48,-0.13112
1620.49,-0.13103
1620.5,-0.13063
1620.51,-0.13077
1620.52,-0.1309
1620.53,-0.13082
1620.54,-0.13028
1620.55,-0.1305
1620.56,-0.13058
1620.57,-0.13086
1620.58,-0.13106
1620.59,-0.13112
1620.6,-0.1308
1620.61,-0.13153
1620.62,-0.13126
1620.63,-0.13081
1620.64,-0.1303
1620.65,-0.13074
1620.66,-0.13081
1620.67,-0.13043
1620.68,-0.13068
1620.69,-0.13089
1620.7,-0.13121
1620.71,-0.1311
1620.72,-0.13113
1620.73,-0.13077
1620.74,-0.13096
1620.75,-0.13052
1620.76,-0.13018
1620.77,-0.13024
1620.78,-0.13083
1620.79,-0.13059
1620.8,-0.13119
1620.81,-0.13093
1620.82,-0.1308
1620.83,-0.13121
1620.84,-0.1308
1620.85,-0.13065
1620.86,-0.13098
1620.87,-0.13028
1620.88,-0.13045
1620.89,-0.13078
1620.9,-0.13107
1620.91,-0.13085
1620.92,-0.13115
1620.93,-0.13141
1620.94,-0.13148
1620.95,-0.13098
1620.96,-0.13084
1620.97,-0.1305
1620.98,-0.13092
1620.99,-0.13047
1621,-0.13099
1621.01,-0.13092
1621.02,-0.13046
1621.03,-0.13099
1621.04,-0.13065
1621.05,-0.13105
1621.06,-0.13091
1621.07,-0.13068
1621.08,-0.13092
1621.09,-0.13027
1621.1,-0.13058
1621.11,-0.13059
1621.12,-0.13069
1621.13,-0.13056
1621.14,-0.13124
1621.15,-0.1309
1621.16,-0.13106
1621.17,-0.13101
1621.18,-0.13094
1621.19,-0.131
1621.2,-0.13025
1621.21,-0.13087
1621.22,-0.13004
1621.23,-0.13086
1621.24,-0.1303
1621.25,-0.13022
1621.26,-0.13102
1621.27,-0.13238
1621.28,-0.13066
1621.29,-0.13088
1621.3,-0.13093
1621.31,-0.13092
1621.32,-0.13107
1621.33,-0.13071
1621.34,-0.13093
1621.35,-0.13127
1621.36,-0.13138
1621.37,-0.13138
1621.38,-0.13172
1621.39,-0.1316
1621.4,-0.13125
1621.41,-0.13116
1621.42,-0.13086
1621.43,-0.13131
1621.44,-0.13096
1621.45,-0.13115
1621.46,-0.13157
1621.47,-0.13151
1621.48,-0.13166
1621.49,-0.13217
1621.5,-0.13097
1621.51,-0.13197
1621.52,-0.13195
1621.53,-0.13083
1621.54,-0.13132
1621.55,-0.13153
1621.56,-0.13168
1621.57,-0.13162
1621.58,-0.13206
1621.59,-0.13215
1621.6,-0.13168
1621.61,-0.13214
1621.62,-0.13245
1621.63,-0.13234
1621.64,-0.13178
1621.65,-0.1323
1621.66,-0.13189
1621.67,-0.13152
1621.68,-0.1323
1621.69,-0.13234
1621.7,-0.13268
1621.71,-0.13219
1621.72,-0.13247
1621.73,-0.13243
1621.74,-0.13233
1621.75,-0.13221
1621.76,-0.13206
1621.77,-0.13224
1621.78,-0.13193
1621.79,-0.13245
1621.8,-0.13213
1621.81,-0.13263
1621.82,-0.13221
1621.83,-0.13265
1621.84,-0.13257
1621.85,-0.13256
1621.86,-0.13253
1621.87,-0.13222
1621.88,-0.13172
1621.89,-0.13238
1621.9,-0.13245
1621.91,-0.13232
1621.92,-0.13285
1621.93,-0.13262
1621.94,-0.13264
1621.95,-0.13296
1621.96,-0.13253
1621.97,-0.13226
1621.98,-0.13199
1621.99,-0.13237
1622,-0.13211
1622.01,-0.13199
1622.02,-0.13246
1622.03,-0.13247
1622.04,-0.13209
1622.05,-0.13252
1622.06,-0.13193
1622.07,-0.13247
1622.08,-0.13256
1622.09,-0.13196
1622.1,-0.13209
1622.11,-0.13267
1622.12,-0.13181
1622.13,-0.13295
1622.14,-0.13269
1622.15,-0.13222
1622.16,-0.1327
1622.17,-0.13284
1622.18,-0.13185
1622.19,-0.13217
1622.2,-0.13209
1622.21,-0.13212
1622.22,-0.13206
1622.23,-0.1318
1622.24,-0.13209
1622.25,-0.13216
1622.26,-0.13185
1622.27,-0.13243
1622.28,-0.13237
1622.29,-0.13272
1622.3,-0.13242
1622.31,-0.13176
1622.32,-0.13217
1622.33,-0.13161
1622.34,-0.13199
1622.35,-0.13267
1622.36,-0.1316
1622.37,-0.1323
1622.38,-0.13203
1622.39,-0.13263
1622.4,-0.13257
1622.41,-0.13237
1622.42,-0.1323
1622.43,-0.13219
1622.44,-0.13206
1622.45,-0.13218
1622.46,-0.13191
1622.47,-0.13205
1622.48,-0.13212
1622.49,-0.1327
1622.5,-0.13245
1622.51,-0.13306
1622.52,-0.13218
1622.53,-0.13222
1622.54,-0.13185
1622.55,-0.13232
1622.56,-0.13242
1622.57,-0.13218
1622.58,-0.13264
1622.59,-0.13262
1622.6,-0.1327
1622.61,-0.13284
1622.62,-0.13293
1622.63,-0.13277
1622.64,-0.13234
1622.65,-0.13256
1622.66,-0.13239
1622.67,-0.13196
1622.68,-0.13239
1622.69,-0.13254
1622.7,-0.13216
1622.71,-0.13289
1622.72,-0.13278
1622.73,-0.13275
1622.74,-0.13275
1622.75,-0.13212
1622.76,-0.13209
1622.77,-0.13258
1622.78,-0.13236
1622.79,-0.13261
1622.8,-0.13351
1622.81,-0.13289
1622.82,-0.13294
1622.83,-0.13314
1622.84,-0.13341
1622.85,-0.13292
1622.86,-0.1329
1622.87,-0.13237
1622.88,-0.13275
1622.89,-0.13222
1622.9,-0.1327
1622.91,-0.13264
1622.92,-0.13303
1622.93,-0.13287
1622.94,-0.13336
1622.95,-0.13279
1622.96,-0.13353
1622.97,-0.13236
1622.98,-0.13264
1622.99,-0.13243
1623,-0.13262
1623.01,-0.1326
1623.02,-0.13307
1623.03,-0.13235
1623.04,-0.13329
1623.05,-0.1332
1623.06,-0.13309
1623.07,-0.13308
1623.08,-0.13317
1623.09,-0.13311
1623.1,-0.13252
1623.11,-0.13274
1623.12,-0.13282
1623.13,-0.13243
1623.14,-0.13269
1623.15,-0.13276
1623.16,-0.1332
1623.17,-0.13283
1623.18,-0.13281
1623.19,-0.13306
1623.2,-0.13219
1623.21,-0.13267
1623.22,-0.13208
1623.23,-0.13239
1623.24,-0.13229
1623.25,-0.13275
1623.26,-0.13254
1623.27,-0.13272
1623.28,-0.13281
1623.29,-0.13258
1623.3,-0.13265
1623.31,-0.13293
1623.32,-0.13224
1623.33,-0.13208
1623.34,-0.1316
1623.35,-0.13153
1623.36,-0.13212
1623.37,-0.1321
1623.38,-0.13203
1623.39,-0.13162
1623.4,-0.13218
1623.41,-0.13158
1623.42,-0.13154
1623.43,-0.13194
1623.44,-0.13151
1623.45,-0.13156
1623.46,-0.13183
1623.47,-0.13137
1623.48,-0.13176
1623.49,-0.13238
1623.5,-0.13203
1623.51,-0.13166
1623.52,-0.13216
1623.53,-0.13212
1623.54,-0.13174
1623.55,-0.1317
1623.56,-0.1313
1623.57,-0.13183
1623.58,-0.13178
1623.59,-0.13167
1623.6,-0.13252
1623.61,-0.13188
1623.62,-0.13244
1623.63,-0.13217
1623.64,-0.13218
1623.65,-0.13222
1623.66,-0.13157
1623.67,-0.13211
1623.68,-0.13256
1623.69,-0.13184
1623.7,-0.13198
1623.71,-0.1322
1623.72,-0.13237
1623.73,-0.13223
1623.74,-0.13251
1623.75,-0.13221
1623.76,-0.13218
1623.77,-0.13224
1623.78,-0.13209
1623.79,-0.132
1623.8,-0.13253
1623.81,-0.13209
1623.82,-0.13259
1623.83,-0.13255
1623.84,-0.13261
1623.85,-0.13259
1623.86,-0.13367
1623.87,-0.13255
1623.88,-0.13272
1623.89,-0.133
1623.9,-0.13251
1623.91,-0.13303
1623.92,-0.13312
1623.93,-0.13361
1623.94,-0.13317
1623.95,-0.13337
1623.96,-0.13361
1623.97,-0.13361
1623.98,-0.13364
1623.99,-0.13271
1624,-0.13362
1624.01,-0.13279
1624.02,-0.13329
1624.03,-0.13358
1624.04,-0.13333
1624.05,-0.13305
1624.06,-0.13354
1624.07,-0.13375
1624.08,-0.13357
1624.09,-0.13348
1624.1,-0.13297
1624.11,-0.13362
1624.12,-0.13331
1624.13,-0.13328
1624.14,-0.13332
1624.15,-0.13366
1624.16,-0.13376
1624.17,-0.13363
1624.18,-0.1337
1624.19,-0.13423
1624.2,-0.13362
1624.21,-0.13403
1624.22,-0.13371
1624.23,-0.13409
1624.24,-0.13401
1624.25,-0.13478
1624.26,-0.13385
1624.27,-0.13489
1624.28,-0.13457
1624.29,-0.13474
1624.3,-0.13453
1624.31,-0.13443
1624.32,-0.1343
1624.33,-0.1339
1624.34,-0.1337
1624.35,-0.13431
1624.36,-0.13381
1624.37,-0.13404
1624.38,-0.134
1624.39,-0.13434
1624.4,-0.13429
1624.41,-0.13375
1624.42,-0.13408
1624.43,-0.13383
1624.44,-0.13323
1624.45,-0.13341
1624.46,-0.1339
1624.47,-0.13364
1624.48,-0.13385
1624.49,-0.13397
1624.5,-0.13413
1624.51,-0.13385
1624.52,-0.13368
1624.53,-0.134
1624.54,-0.1336
1624.55,-0.13307
1624.56,-0.1329
1624.57,-0.13311
1624.58,-0.13295
1624.59,-0.13274
1624.6,-0.13326
1624.61,-0.13325
1624.62,-0.1332
1624.63,-0.13329
1624.64,-0.13297
1624.65,-0.13293
1624.66,-0.13297
1624.67,-0.1325
1624.68,-0.13301
1624.69,-0.13292
1624.7,-0.13303
1624.71,-0.13263
1624.72,-0.13294
1624.73,-0.13322
1624.74,-0.13318
1624.75,-0.13322
1624.76,-0.13314
1624.77,-0.13269
1624.78,-0.13288
1624.79,-0.13266
1624.8,-0.13307
1624.81,-0.13266
1624.82,-0.13326
1624.83,-0.13249
1624.84,-0.13332
1624.85,-0.13312
1624.86,-0.13313
1624.87,-0.13227
1624.88,-0.13314
1624.89,-0.13287
1624.9,-0.13246
1624.91,-0.13224
1624.92,-0.13254
1624.93,-0.13296
1624.94,-0.13343
1624.95,-0.13318
1624.96,-0.13342
1624.97,-0.133
1624.98,-0.13387
1624.99,-0.13319
1625,-0.13285
1625.01,-0.13289
1625.02,-0.1331
1625.03,-0.13329
1625.04,-0.13336
1625.05,-0.13296
1625.06,-0.1332
1625.07,-0.13337
1625.08,-0.13346
1625.09,-0.13339
1625.1,-0.13321
1625.11,-0.13348
1625.12,-0.13307
1625.13,-0.1332
1625.14,-0.13365
1625.15,-0.13315
1625.16,-0.13321
1625.17,-0.13366
1625.18,-0.13362
1625.19,-0.13404
1625.2,-0.13435
1625.21,-0.13418
1625.22,-0.13348
1625.23,-0.13398
1625.24,-0.1338
1625.25,-0.13399
1625.26,-0.13409
1625.27,-0.13406
1625.28,-0.13449
1625.29,-0.13432
1625.3,-0.13459
1625.31,-0.13489
1625.32,-0.13481
1625.33,-0.13411
1625.34,-0.13443
1625.35,-0.13417
1625.36,-0.13414
1625.37,-0.13443
1625.38,-0.13458
1625.39,-0.13504
1625.4,-0.1348
1625.41,-0.13522
1625.42,-0.13554
1625.43,-0.13489
1625.44,-0.13483
1625.45,-0.13554
1625.46,-0.13465
1625.47,-0.13534
1625.48,-0.13526
1625.49,-0.13515
1625.5,-0.13546
1625.51,-0.13544
1625.52,-0.13567
1625.53,-0.13531
1625.54,-0.13583
1625.55,-0.13493
1625.56,-0.13521
1625.57,-0.13501
1625.58,-0.13507
1625.59,-0.13525
1625.6,-0.13511
1625.61,-0.1356
1625.62,-0.13513
1625.63,-0.13567
1625.64,-0.13619
1625.65,-0.13558
1625.66,-0.13555
1625.67,-0.13581
1625.68,-0.1357
1625.69,-0.13565
1625.7,-0.1354
1625.71,-0.13577
1625.72,-0.13592
1625.73,-0.13636
1625.74,-0.13592
1625.75,-0.13604
1625.76,-0.13599
1625.77,-0.13637
1625.78,-0.13549
1625.79,-0.13573
1625.8,-0.13531
1625.81,-0.135
1625.82,-0.13562
1625.83,-0.13513
1625.84,-0.13607
1625.85,-0.13554
1625.86,-0.13586
1625.87,-0.13535
1625.88,-0.13545
1625.89,-0.13543
1625.9,-0.13498
1625.91,-0.13567
1625.92,-0.1348
1625.93,-0.13561
1625.94,-0.1353
1625.95,-0.13572
1625.96,-0.13599
1625.97,-0.13555
1625.98,-0.13547
1625.99,-0.13547
1626,-0.13507
1626.01,-0.13498
1626.02,-0.13477
1626.03,-0.13503
1626.04,-0.13506
1626.05,-0.13494
1626.06,-0.13522
1626.07,-0.13591
1626.08,-0.13519
1626.09,-0.13573
1626.1,-0.13532
1626.11,-0.13501
1626.12,-0.13451
1626.13,-0.13494
1626.14,-0.13472
1626.15,-0.1349
1626.16,-0.13452
1626.17,-0.13492
1626.18,-0.1348
1626.19,-0.13452
1626.2,-0.13511
1626.21,-0.13478
1626.22,-0.13446
1626.23,-0.13451
1626.24,-0.13404
1626.25,-0.1347
1626.26,-0.13472
1626.27,-0.13449
1626.28,-0.13503
1626.29,-0.13542
1626.3,-0.13504
1626.31,-0.13576
1626.32,-0.13521
1626.33,-0.13528
1626.34,-0.13533
1626.35,-0.13468
1626.36,-0.13505
1626.37,-0.13506
1626.38,-0.13508
1626.39,-0.13547
1626.4,-0.13547
1626.41,-0.13551
1626.42,-0.13527
1626.43,-0.13528
1626.44,-0.13516
1626.45,-0.13476
1626.46,-0.13448
1626.47,-0.13452
1626.48,-0.13448
1626.49,-0.13414
1626.5,-0.13477
1626.51,-0.13467
1626.52,-0.13495
1626.53,-0.13459
1626.54,-0.13524
1626.55,-0.13472
1626.56,-0.1345
1626.57,-0.13434
1626.58,-0.13482
1626.59,-0.13443
1626.6,-0.13489
1626.61,-0.13509
1626.62,-0.13452
1626.63,-0.13555
1626.64,-0.13568
1626.65,-0.13586
1626.66,-0.13567
1626.67,-0.13574
1626.68,-0.13568
1626.69,-0.1356
1626.7,-0.13516
1626.71,-0.13581
1626.72,-0.13517
1626.73,-0.13533
1626.74,-0.13532
1626.75,-0.13532
1626.76,-0.13555
1626.77,-0.13602
1626.78,-0.13501
1626.79,-0.13496
1626.8,-0.13508
1626.81,-0.13529
1626.82,-0.13529
1626.83,-0.13544
1626.84,-0.13543
1626.85,-0.13622
1626.86,-0.13602
1626.87,-0.13594
1626.88,-0.13607
1626.89,-0.13653
1626.9,-0.13671
1626.91,-0.13663
1626.92,-0.13594
1626.93,-0.13635
1626.94,-0.13604
1626.95,-0.13641
1626.96,-0.13597
1626.97,-0.13623
1626.98,-0.13623
1626.99,-0.13637
1627,-0.13577
1627.01,-0.13572
1627.02,-0.13542
1627.03,-0.13573
1627.04,-0.13618
1627.05,-0.13574
1627.06,-0.13557
1627.07,-0.13619
1627.08,-0.13591
1627.09,-0.1364
1627.1,-0.13696
1627.11,-0.13531
1627.12,-0.13578
1627.13,-0.13573
1627.14,-0.13549
1627.15,-0.13534
1627.16,-0.13567
1627.17,-0.13564
1627.18,-0.13537
1627.19,-0.13593
1627.2,-0.13594
1627.21,-0.1358
1627.22,-0.13585
1627.23,-0.13531
1627.24,-0.13538
1627.25,-0.13519
1627.26,-0.1354
1627.27,-0.13509
1627.28,-0.13526
1627.29,-0.13566
1627.3,-0.13546
1627.31,-0.13579
1627.32,-0.1355
1627.33,-0.13538
1627.34,-0.1352
1627.35,-0.13483
1627.36,-0.13524
1627.37,-0.13496
1627.38,-0.13538
1627.39,-0.13519
1627.4,-0.13521
1627.41,-0.13515
1627.42,-0.13555
1627.43,-0.13575
1627.44,-0.13514
1627.45,-0.1355
1627.46,-0.13541
1627.47,-0.13506
1627.48,-0.13536
1627.49,-0.13512
1627.5,-0.13534
1627.51,-0.13551
1627.52,-0.13536
1627.53,-0.13589
1627.54,-0.13553
1627.55,-0.13548
1627.56,-0.13502
1627.57,-0.1351
1627.58,-0.13513
1627.59,-0.13525
1627.6,-0.13481
1627.61,-0.1353
1627.62,-0.13486
1627.63,-0.13543
1627.64,-0.13525
1627.65,-0.1355
1627.66,-0.13525
1627.67,-0.13513
1627.68,-0.13544
1627.69,-0.13445
1627.7,-0.13472
1627.71,-0.13478
1627.72,-0.1343
1627.73,-0.13478
1627.74,-0.13537
1627.75,-0.13503
1627.76,-0.1353
1627.77,-0.13497
1627.78,-0.13532
1627.79,-0.13514
1627.8,-0.13491
1627.81,-0.13516
1627.82,-0.13552
1627.83,-0.13521
1627.84,-0.13486
1627.85,-0.13527
1627.86,-0.13527
1627.87,-0.13591
1627.88,-0.1352
1627.89,-0.13535
1627.9,-0.13544
1627.91,-0.13568
1627.92,-0.13612
1627.93,-0.13662
1627.94,-0.13512
1627.95,-0.1373
1627.96,-0.14302
1627.97,-0.16145
1627.98,-0.19682
1627.99,-0.25273
1628,-0.32437
1628.01,-0.41311
1628.02,-0.50267
1628.03,-0.58094
1628.04,-0.62815
1628.05,-0.63295
1628.06,-0.59744
1628.07,-0.53043
1628.08,-0.44599
1628.09,-0.36
1628.1,-0.28482
1628.11,-0.22645
1628.12,-0.18455
1628.13,-0.15978
1628.14,-0.14643
1628.15,-0.14014
1628.16,-0.13774
1628.17,-0.13706
1628.18,-0.13719
1628.19,-0.13685
1628.2,-0.13683
1628.21,-0.13705
1628.22,-0.13671
1628.23,-0.13634
1628.24,-0.13686
1628.25,-0.13651
1628.26,-0.13691
1628.27,-0.13741
1628.28,-0.13702
1628.29,-0.13695
1628.3,-0.13753
1628.31,-0.13753
1628.32,-0.13766
1628.33,-0.13767
1628.34,-0.13759
1628.35,-0.13737
1628.36,-0.13649
1628.37,-0.13665
1628.38,-0.13699
1628.39,-0.1367
1628.4,-0.13654
1628.41,-0.13721
1628.42,-0.13695
1628.43,-0.13722
1628.44,-0.137
1628.45,-0.13717
1628.46,-0.13727
1628.47,-0.13669
1628.48,-0.1364
1628.49,-0.13685
1628.5,-0.13665
1628.51,-0.13642
1628.52,-0.13667
1628.53,-0.13629
1628.54,-0.13671
1628.55,-0.13655
1628.56,-0.13715
1628.57,-0.13652
1628.58,-0.13623
1628.59,-0.13641
1628.6,-0.13586
1628.61,-0.13632
1628.62,-0.13646
1628.63,-0.1366
1628.64,-0.13657
1628.65,-0.13676
1628.66,-0.13706
1628.67,-0.13699
1628.68,-0.13677
1628.69,-0.13647
1628.7,-0.13662
1628.71,-0.13615
1628.72,-0.13634
1628.73,-0.13681
1628.74,-0.13612
1628.75,-0.1374
1628.76,-0.13616
1628.77,-0.13671
1628.78,-0.13671
1628.79,-0.13648
1628.8,-0.13604
1628.81,-0.13587
1628.82,-0.13627
1628.83,-0.13619
1628.84,-0.13603
1628.85,-0.13651
1628.86,-0.13608
1628.87,-0.13686
1628.88,-0.13642
1628.89,-0.1367
1628.9,-0.13641
1628.91,-0.13604
1628.92,-0.1361
1628.93,-0.13622
1628.94,-0.13656
1628.95,-0.13604
1628.96,-0.13655
1628.97,-0.13725
1628.98,-0.13686
1628.99,-0.13718
1629,-0.1373
1629.01,-0.13756
1629.02,-0.13728
1629.03,-0.13721
1629.04,-0.13692
1629.05,-0.13753
1629.06,-0.13696
1629.07,-0.13693
1629.08,-0.13675
1629.09,-0.13684
1629.1,-0.13713
1629.11,-0.13659
1629.12,-0.13703
1629.13,-0.13693
1629.14,-0.13656
1629.15,-0.13677
1629.16,-0.13617
1629.17,-0.13661
1629.18,-0.13669
1629.19,-0.13673
1629.2,-0.13727
1629.21,-0.13761
1629.22,-0.13725
1629.23,-0.13803
1629.24,-0.13747
1629.25,-0.13765
1629.26,-0.13701
1629.27,-0.13771
1629.28,-0.138
1629.29,-0.13722
1629.3,-0.13791
1629.31,-0.13763
1629.32,-0.13772
1629.33,-0.13784
1629.34,-0.13744
1629.35,-0.13733
1629.36,-0.13662
1629.37,-0.13777
1629.38,-0.13716
1629.39,-0.13753
1629.4,-0.13728
1629.41,-0.13755
1629.42,-0.13761
1629.43,-0.13782
1629.44,-0.13833
1629.45,-0.13853
1629.46,-0.13873
1629.47,-0.13827
1629.48,-0.13852
1629.49,-0.13866
1629.5,-0.13875
1629.51,-0.13894
1629.52,-0.13916
1629.53,-0.13921
1629.54,-0.13914
1629.55,-0.13937
1629.56,-0.1396
1629.57,-0.13978
1629.58,-0.13974
1629.59,-0.13911
1629.6,-0.13874
1629.61,-0.13886
1629.62,-0.13889
1629.63,-0.13897
1629.64,-0.13879
1629.65,-0.13908
1629.66,-0.13903
1629.67,-0.13877
1629.68,-0.1392
1629.69,-0.1385
1629.7,-0.13777
1629.71,-0.13846
1629.72,-0.1381
1629.73,-0.13818
1629.74,-0.13862
1629.75,-0.13852
1629.76,-0.13823
1629.77,-0.13892
1629.78,-0.1389
1629.79,-0.13879
1629.8,-0.13883
1629.81,-0.13847
1629.82,-0.13876
1629.83,-0.13856
1629.84,-0.13858
1629.85,-0.13869
1629.86,-0.13903
1629.87,-0.13844
1629.88,-0.1381
1629.89,-0.13875
1629.9,-0.13814
1629.91,-0.13807
1629.92,-0.13756
1629.93,-0.13755
1629.94,-0.13751
1629.95,-0.13751
1629.96,-0.13733
1629.97,-0.13772
1629.98,-0.13745
1629.99,-0.13803
1630,-0.13791
1630.01,-0.13796
1630.02,-0.13765
1630.03,-0.13748
1630.04,-0.13765
1630.05,-0.13823
1630.06,-0.13763
1630.07,-0.13796
1630.08,-0.13829
1630.09,-0.13795
1630.1,-0.13896
1630.11,-0.13883
1630.12,-0.1393
1630.13,-0.13885
1630.14,-0.13862
1630.15,-0.13827
1630.16,-0.13836
1630.17,-0.13809
1630.18,-0.13799
1630.19,-0.1382
1630.2,-0.13749
1630.21,-0.13828
1630.22,-0.13796
1630.23,-0.1384
1630.24,-0.13795
1630.25,-0.13779
1630.26,-0.13706
1630.27,-0.13732
1630.28,-0.13766
1630.29,-0.13759
1630.3,-0.13779
1630.31,-0.13927
1630.32,-0.13957
1630.33,-0.14105
1630.34,-0.14093
1630.35,-0.14101
1630.36,-0.142
1630.37,-0.14767
1630.38,-0.17067
1630.39,-0.22603
1630.4,-0.31545
1630.41,-0.45303
1630.42,-0.6324
1630.43,-0.81838
1630.44,-0.98254
1630.45,-1.09838
1630.46,-1.13991
1630.47,-1.10477
1630.48,-0.99951
1630.49,-0.84802
1630.5,-0.68278
1630.51,-0.52384
1630.52,-0.38306
1630.53,-0.27795
1630.54,-0.21113
1630.55,-0.17327
1630.56,-0.1544
1630.57,-0.14605
1630.58,-0.14239
1630.59,-0.14133
1630.6,-0.14098
1630.61,-0.14068
1630.62,-0.14068
1630.63,-0.14005
1630.64,-0.13954
1630.65,-0.13941
1630.66,-0.14017
1630.67,-0.13932
1630.68,-0.13902
1630.69,-0.13911
1630.7,-0.13927
1630.71,-0.13888
1630.72,-0.13853
1630.73,-0.13888
1630.74,-0.13968
1630.75,-0.13907
1630.76,-0.13952
1630.77,-0.13968
1630.78,-0.13996
1630.79,-0.14041
1630.8,-0.14075
1630.81,-0.14098
1630.82,-0.14102
1630.83,-0.14051
1630.84,-0.14116
1630.85,-0.14146
1630.86,-0.14092
1630.87,-0.14102
1630.88,-0.14091
1630.89,-0.14083
1630.9,-0.14038
1630.91,-0.14028
1630.92,-0.1399
1630.93,-0.14012
1630.94,-0.14037
1630.95,-0.14046
1630.96,-0.14042
1630.97,-0.14094
1630.98,-0.14111
1630.99,-0.14124
1631,-0.14123
1631.01,-0.14115
1631.02,-0.14057
1631.03,-0.1402
1631.04,-0.13979
1631.05,-0.13902
1631.06,-0.13891
1631.07,-0.13918
1631.08,-0.13878
1631.09,-0.13878
1631.1,-0.13887
1631.11,-0.13904
1631.12,-0.13867
1631.13,-0.13875
1631.14,-0.1385
1631.15,-0.13834
1631.16,-0.13903
1631.17,-0.13919
1631.18,-0.13958
1631.19,-0.13948
1631.2,-0.14079
1631.21,-0.1407
1631.22,-0.14078
1631.23,-0.14103
1631.24,-0.14189
1631.25,-0.14115
1631.26,-0.14117
1631.27,-0.14074
1631.28,-0.14095
1631.29,-0.14074
1631.3,-0.14128
1631.31,-0.14049
1631.32,-0.14117
1631.33,-0.14047
1631.34,-0.14026
1631.35,-0.14023
1631.36,-0.13926
1631.37,-0.13879
1631.38,-0.13814
1631.39,-0.13877
1631.4,-0.138
1631.41,-0.13814
1631.42,-0.13814
1631.43,-0.13833
1631.44,-0.13864
1631.45,-0.13885
1631.46,-0.1393
1631.47,-0.13896
1631.48,-0.13868
1631.49,-0.13946
1631.5,-0.13795
1631.51,-0.13959
1631.52,-0.13946
1631.53,-0.1403
1631.54,-0.14062
1631.55,-0.14166
1631.56,-0.14143
1631.57,-0.14269
1631.58,-0.14205
1631.59,-0.14208
1631.6,-0.14219
1631.61,-0.14129
1631.62,-0.14052
1631.63,-0.14069
1631.64,-0.13982
1631.65,-0.13968
1631.66,-0.13929
1631.67,-0.13953
1631.68,-0.13938
1631.69,-0.13925
1631.7,-0.13904
1631.71,-0.13849
1631.72,-0.13834
1631.73,-0.13903
1631.74,-0.13913
1631.75,-0.13932
1631.76,-0.13931
1631.77,-0.14074
1631.78,-0.14057
1631.79,-0.14166
1631.8,-0.14192
1631.81,-0.14226
1631.82,-0.14194
1631.83,-0.14188
1631.84,-0.14122
1631.85,-0.14141
1631.86,-0.14059
1631.87,-0.14034
1631.88,-0.14035
1631.89,-0.13976
1631.9,-0.13976
1631.91,-0.14038
1631.92,-0.13959
1631.93,-0.13963
1631.94,-0.13956
1631.95,-0.13984
1631.96,-0.13983
1631.97,-0.14008
1631.98,-0.14092
1631.99,-0.14152
1632,-0.1419
1632.01,-0.14218
1632.02,-0.14206
1632.03,-0.14242
1632.04,-0.14158
1632.05,-0.14229
1632.06,-0.1418
1632.07,-0.14169
1632.08,-0.1425
1632.09,-0.14202
1632.1,-0.14254
1632.11,-0.14309
1632.12,-0.14296
1632.13,-0.1426
1632.14,-0.14193
1632.15,-0.14177
1632.16,-0.14117
1632.17,-0.14033
1632.18,-0.14043
1632.19,-0.1402
1632.2,-0.13993
1632.21,-0.13989
1632.22,-0.14019
1632.23,-0.13983
1632.24,-0.14094
1632.25,-0.13942
1632.26,-0.13933
1632.27,-0.1399
1632.28,-0.13951
1632.29,-0.13963
1632.3,-0.13976
1632.31,-0.13987
1632.32,-0.13975
1632.33,-0.14027
1632.34,-0.13998
1632.35,-0.14066
1632.36,-0.14048
1632.37,-0.14017
1632.38,-0.13982
1632.39,-0.14008
1632.4,-0.14067
1632.41,-0.13978
1632.42,-0.14016
1632.43,-0.14013
1632.44,-0.13961
1632.45,-0.14031
1632.46,-0.13966
1632.47,-0.13929
1632.48,-0.13955
1632.49,-0.13918
1632.5,-0.1391
1632.51,-0.13929
1632.52,-0.13948
1632.53,-0.13934
1632.54,-0.13926
1632.55,-0.13945
1632.56,-0.14037
1632.57,-0.14007
1632.58,-0.14046
1632.59,-0.14015
1632.6,-0.14031
1632.61,-0.14005
1632.62,-0.14034
1632.63,-0.1402
1632.64,-0.14054
1632.65,-0.14022
1632.66,-0.14038
1632.67,-0.14048
1632.68,-0.14069
1632.69,-0.14137
1632.7,-0.14111
1632.71,-0.14093
1632.72,-0.14015
1632.73,-0.14142
1632.74,-0.15118
1632.75,-0.17769
1632.76,-0.23249
1632.77,-0.32747
1632.78,-0.45422
1632.79,-0.60648
1632.8,-0.75395
1632.81,-0.8801
1632.82,-0.94638
1632.83,-0.9483
1632.84,-0.8987
1632.85,-0.79701
1632.86,-0.65944
1632.87,-0.52571
1632.88,-0.40478
1632.89,-0.30513
1632.9,-0.23196
1632.91,-0.1851
1632.92,-0.1575
1632.93,-0.14702
1632.94,-0.14223
1632.95,-0.14107
1632.96,-0.14093
1632.97,-0.1409
1632.98,-0.14068
1632.99,-0.14073
1633,-0.14071
1633.01,-0.14062
1633.02,-0.14141
1633.03,-0.1414
1633.04,-0.14124
1633.05,-0.14127
1633.06,-0.14139
1633.07,-0.14216
1633.08,-0.14238
1633.09,-0.14371
1633.1,-0.14196
1633.11,-0.14424
1633.12,-0.14317
1633.13,-0.14366
1633.14,-0.1432
1633.15,-0.14246
1633.16,-0.14225
1633.17,-0.14263
1633.18,-0.14213
1633.19,-0.14245
1633.2,-0.14273
1633.21,-0.14298
1633.22,-0.14336
1633.23,-0.14385
1633.24,-0.14347
1633.25,-0.14397
1633.26,-0.14403
1633.27,-0.14311
1633.28,-0.14278
1633.29,-0.14257
1633.3,-0.14216
1633.31,-0.14201
1633.32,-0.14217
1633.33,-0.14196
1633.34,-0.14221
1633.35,-0.14163
1633.36,-0.14215
1633.37,-0.14137
1633.38,-0.14131
1633.39,-0.14096
1633.4,-0.1414
1633.41,-0.1417
1633.42,-0.14171
1633.43,-0.14178
1633.44,-0.14258
1633.45,-0.1426
1633.46,-0.14364
1633.47,-0.14382
1633.48,-0.14415
1633.49,-0.14329
1633.5,-0.14391
1633.51,-0.14317
1633.52,-0.1437
1633.53,-0.14387
1633.54,-0.14394
1633.55,-0.14352
1633.56,-0.14362
1633.57,-0.14381
1633.58,-0.14378
1633.59,-0.14359
1633.6,-0.14301
1633.61,-0.14239
1633.62,-0.14175
1633.63,-0.14139
1633.64,-0.14101
1633.65,-0.1409
1633.66,-0.14079
1633.67,-0.14108
1633.68,-0.14079
1633.69,-0.14019
1633.7,-0.14066
1633.71,-0.14056
1633.72,-0.14047
1633.73,-0.13995
1633.74,-0.13983
1633.75,-0.14019
1633.76,-0.14056
1633.77,-0.1404
1633.78,-0.14093
1633.79,-0.1418
1633.8,-0.1418
1633.81,-0.14254
1633.82,-0.14256
1633.83,-0.1431
1633.84,-0.14277
1633.85,-0.14335
1633.86,-0.14306
1633.87,-0.14276
1633.88,-0.14257
1633.89,-0.14164
1633.9,-0.1419
1633.91,-0.141
1633.92,-0.14104
1633.93,-0.14021
1633.94,-0.13979
1633.95,-0.14023
1633.96,-0.13921
1633.97,-0.13982
1633.98,-0.1398
1633.99,-0.14002
1634,-0.14015
1634.01,-0.14004
1634.02,-0.14059
1634.03,-0.14121
1634.04,-0.14161
1634.05,-0.14163
1634.06,-0.1426
1634.07,-0.14339
1634.08,-0.14301
1634.09,-0.14308
1634.1,-0.1426
1634.11,-0.14304
1634.12,-0.14214
1634.13,-0.14213
1634.14,-0.14199
1634.15,-0.14174
1634.16,-0.14093
1634.17,-0.14049
1634.18,-0.14031
1634.19,-0.14079
1634.2,-0.14067
1634.21,-0.1409
1634.22,-0.14071
1634.23,-0.14186
1634.24,-0.14257
1634.25,-0.1429
1634.26,-0.1413
1634.27,-0.14332
1634.28,-0.1418
1634.29,-0.14255
1634.3,-0.14176
1634.31,-0.14238
1634.32,-0.14184
1634.33,-0.14141
1634.34,-0.14238
1634.35,-0.14236
1634.36,-0.14264
1634.37,-0.14266
1634.38,-0.14287
1634.39,-0.14195
1634.4,-0.14248
1634.41,-0.14154
1634.42,-0.14204
1634.43,-0.14234
1634.44,-0.14171
1634.45,-0.14188
1634.46,-0.14197
1634.47,-0.14226
1634.48,-0.1419
1634.49,-0.14172
1634.5,-0.1416
1634.51,-0.14195
1634.52,-0.14117
1634.53,-0.14141
1634.54,-0.1415
1634.55,-0.14146
1634.56,-0.14173
1634.57,-0.14169
1634.58,-0.14159
1634.59,-0.14269
1634.6,-0.14191
1634.61,-0.1415
1634.62,-0.1421
1634.63,-0.1413
1634.64,-0.14173
1634.65,-0.14238
1634.66,-0.14211
1634.67,-0.14229
1634.68,-0.1424
1634.69,-0.14322
1634.7,-0.14333
1634.71,-0.14317
1634.72,-0.14315
1634.73,-0.14201
1634.74,-0.14463
1634.75,-0.14224
1634.76,-0.14241
1634.77,-0.14285
1634.78,-0.14274
1634.79,-0.14286
1634.8,-0.14276
1634.81,-0.14336
1634.82,-0.14268
1634.83,-0.14257
1634.84,-0.14253
1634.85,-0.14199
1634.86,-0.1424
1634.87,-0.14236
1634.88,-0.14251
1634.89,-0.14201
1634.9,-0.14259
1634.91,-0.14253
1634.92,-0.14269
1634.93,-0.14321
1634.94,-0.14317
1634.95,-0.14245
1634.96,-0.14278
1634.97,-0.14246
1634.98,-0.14237
1634.99,-0.14296
1635,-0.14265
1635.01,-0.14339
1635.02,-0.14381
1635.03,-0.14354
1635.04,-0.14298
1635.05,-0.14243
1635.06,-0.14219
1635.07,-0.14172
1635.08,-0.14174
1635.09,-0.1416
1635.1,-0.14128
1635.11,-0.14138
1635.12,-0.14193
1635.13,-0.14261
1635.14,-0.14187
1635.15,-0.14205
1635.16,-0.14121
1635.17,-0.14154
1635.18,-0.1415
1635.19,-0.14152
1635.2,-0.14168
1635.21,-0.14259
1635.22,-0.14343
1635.23,-0.14627
1635.24,-0.14826
1635.25,-0.14785
1635.26,-0.14588
1635.27,-0.14828
1635.28,-0.18644
1635.29,-0.29725
1635.3,-0.52876
1635.31,-0.90504
1635.32,-1.38499
1635.33,-1.91504
1635.34,-2.45319
1635.35,-2.88946
1635.36,-3.16274
1635.37,-3.28697
1635.38,-3.23395
1635.39,-2.99511
1635.4,-2.62846
1635.41,-2.163
1635.42,-1.61113
1635.43,-1.12007
1635.44,-0.73365
1635.45,-0.47166
1635.46,-0.30823
1635.47,-0.21812
1635.48,-0.17627
1635.49,-0.1572
1635.5,-0.15042
1635.51,-0.14731
1635.52,-0.14546
1635.53,-0.1443
1635.54,-0.14307
1635.55,-0.14263
1635.56,-0.1426
1635.57,-0.1416
1635.58,-0.14197
1635.59,-0.14216
1635.6,-0.1424
1635.61,-0.14266
1635.62,-0.14208
1635.63,-0.1423
1635.64,-0.14212
1635.65,-0.14276
1635.66,-0.14202
1635.67,-0.14257
1635.68,-0.14327
1635.69,-0.1431
1635.7,-0.14373
1635.71,-0.14412
1635.72,-0.1436
1635.73,-0.14505
1635.74,-0.14439
1635.75,-0.1447
1635.76,-0.1445
1635.77,-0.14432
1635.78,-0.14418
1635.79,-0.14378
1635.8,-0.14372
1635.81,-0.14459
1635.82,-0.14381
1635.83,-0.14431
1635.84,-0.14362
1635.85,-0.14394
1635.86,-0.14457
1635.87,-0.14465
1635.88,-0.14511
1635.89,-0.14526
1635.9,-0.14466
1635.91,-0.14527
1635.92,-0.14474
1635.93,-0.14447
1635.94,-0.14414
1635.95,-0.14355
1635.96,-0.14317
1635.97,-0.14293
1635.98,-0.14316
1635.99,-0.14328
1636,-0.14293
1636.01,-0.14262
1636.02,-0.14319
1636.03,-0.14358
1636.04,-0.14335
1636.05,-0.14328
1636.06,-0.14351
1636.07,-0.14384
1636.08,-0.14327
1636.09,-0.144
1636.1,-0.14436
1636.11,-0.14489
1636.12,-0.14528
1636.13,-0.1455
1636.14,-0.14569
1636.15,-0.14599
1636.16,-0.14613
1636.17,-0.14592
1636.18,-0.14624
1636.19,-0.14609
1636.2,-0.14572
1636.21,-0.14537
1636.22,-0.14563
1636.23,-0.14516
1636.24,-0.14631
1636.25,-0.1443
1636.26,-0.14424
1636.27,-0.14426
1636.28,-0.14307
1636.29,-0.14309
1636.3,-0.14283
1636.31,-0.14285
1636.32,-0.1429
1636.33,-0.14295
1636.34,-0.14256
1636.35,-0.14308
1636.36,-0.14288
1636.37,-0.14376
1636.38,-0.14311
1636.39,-0.14335
1636.4,-0.14402
1636.41,-0.14341
1636.42,-0.14348
1636.43,-0.14411
1636.44,-0.14451
1636.45,-0.14528
1636.46,-0.1454
1636.47,-0.14624
1636.48,-0.14657
1636.49,-0.14669
1636.5,-0.14634
1636.51,-0.14583
1636.52,-0.14521
1636.53,-0.14464
1636.54,-0.14423
1636.55,-0.14404
1636.56,-0.14302
1636.57,-0.14379
1636.58,-0.14349
1636.59,-0.14301
1636.6,-0.14333
1636.61,-0.14323
1636.62,-0.14306
1636.63,-0.14337
1636.64,-0.14299
1636.65,-0.14363
1636.66,-0.14382
1636.67,-0.14432
1636.68,-0.14472
1636.69,-0.14571
1636.7,-0.14646
1636.71,-0.14678
1636.72,-0.14693
1636.73,-0.14621
1636.74,-0.14562
1636.75,-0.14562
1636.76,-0.14498
1636.77,-0.14437
1636.78,-0.1438
1636.79,-0.14331
1636.8,-0.1434
1636.81,-0.14333
1636.82,-0.14405
1636.83,-0.14321
1636.84,-0.14318
1636.85,-0.1431
1636.86,-0.14287
1636.87,-0.14314
1636.88,-0.14335
1636.89,-0.14417
1636.9,-0.14438
1636.91,-0.14484
1636.92,-0.14517
1636.93,-0.14545
1636.94,-0.14518
1636.95,-0.14518
1636.96,-0.14471
1636.97,-0.14496
1636.98,-0.14523
1636.99,-0.14481
1637,-0.14528
1637.01,-0.14567
1637.02,-0.14601
1637.03,-0.14619
1637.04,-0.14617
1637.05,-0.14628
1637.06,-0.14576
1637.07,-0.14489
1637.08,-0.14406
1637.09,-0.14401
1637.1,-0.14348
1637.11,-0.14397
1637.12,-0.1431
1637.13,-0.14323
1637.14,-0.14334
1637.15,-0.14335
1637.16,-0.1434
1637.17,-0.14325
1637.18,-0.14342
1637.19,-0.14324
1637.2,-0.14267
1637.21,-0.14356
1637.22,-0.14372
1637.23,-0.14389
1637.24,-0.1441
1637.25,-0.14471
1637.26,-0.14534
1637.27,-0.1455
1637.28,-0.14601
1637.29,-0.14565
1637.3,-0.14586
1637.31,-0.14532
1637.32,-0.14442
1637.33,-0.14511
1637.34,-0.14458
1637.35,-0.14525
1637.36,-0.14466
1637.37,-0.14482
1637.38,-0.14493
1637.39,-0.14451
1637.4,-0.14535
1637.41,-0.14415
1637.42,-0.14468
1637.43,-0.14393
1637.44,-0.14397
1637.45,-0.14391
1637.46,-0.14474
1637.47,-0.14474
1637.48,-0.14542
1637.49,-0.1483
1637.5,-0.14993
1637.51,-0.15072
1637.52,-0.1489
1637.53,-0.15022
1637.54,-0.1745
1637.55,-0.24827
1637.56,-0.39546
1637.57,-0.64598
1637.58,-1.07459
1637.59,-1.55903
1637.6,-2.07798
1637.61,-2.55935
1637.62,-2.9076
1637.63,-3.09423
1637.64,-3.09461
1637.65,-2.94103
1637.66,-2.61975
1637.67,-2.19823
1637.68,-1.72932
1637.69,-1.25414
1637.7,-0.86185
1637.71,-0.56931
1637.72,-0.3686
1637.73,-0.24875
1637.74,-0.18652
1637.75,-0.1614
1637.76,-0.15201
1637.77,-0.14915
1637.78,-0.14799
1637.79,-0.14753
1637.8,-0.14732
1637.81,-0.14747
1637.82,-0.14698
1637.83,-0.14634
1637.84,-0.14666
1637.85,-0.14587
1637.86,-0.14558
1637.87,-0.14545
1637.88,-0.14504
1637.89,-0.14488
1637.9,-0.14482
1637.91,-0.14481
1637.92,-0.14476
1637.93,-0.14436
1637.94,-0.1441
1637.95,-0.14381
1637.96,-0.14369
1637.97,-0.14397
1637.98,-0.14355
1637.99,-0.14359
1638,-0.14501
1638.01,-0.14497
1638.02,-0.1455
1638.03,-0.14657
1638.04,-0.14683
1638.05,-0.14669
1638.06,-0.14692
1638.07,-0.1468
1638.08,-0.14616
1638.09,-0.14529
1638.1,-0.14554
1638.11,-0.14406
1638.12,-0.14491
1638.13,-0.14393
1638.14,-0.14347
1638.15,-0.1439
1638.16,-0.14348
1638.17,-0.14362
1638.18,-0.14302
1638.19,-0.14293
1638.2,-0.14322
1638.21,-0.14327
1638.22,-0.14385
1638.23,-0.14397
1638.24,-0.14341
1638.25,-0.14468
1638.26,-0.14576
1638.27,-0.14609
1638.28,-0.14684
1638.29,-0.14682
1638.3,-0.14716
1638.31,-0.14751
1638.32,-0.14766
1638.33,-0.14707
1638.34,-0.14749
1638.35,-0.14728
1638.36,-0.14648
1638.37,-0.14678
1638.38,-0.14612
1638.39,-0.14677
1638.4,-0.14659
1638.41,-0.14757
1638.42,-0.14758
1638.43,-0.14815
1638.44,-0.14913
1638.45,-0.14888
1638.46,-0.14863
1638.47,-0.14954
1638.48,-0.14931
1638.49,-0.14993
1638.5,-0.14965
1638.51,-0.14889
1638.52,-0.14733
1638.53,-0.14682
1638.54,-0.1453
1638.55,-0.14511
1638.56,-0.1447
1638.57,-0.14449
1638.58,-0.14498
1638.59,-0.1452
1638.6,-0.14507
1638.61,-0.14521
1638.62,-0.14558
1638.63,-0.14586
1638.64,-0.14504
1638.65,-0.14622
1638.66,-0.14684
1638.67,-0.14722
1638.68,-0.14757
1638.69,-0.14818
1638.7,-0.14844
1638.71,-0.14905
1638.72,-0.14955
1638.73,-0.14958
1638.74,-0.14936
1638.75,-0.14963
1638.76,-0.14943
1638.77,-0.14999
1638.78,-0.14957
1638.79,-0.14901
1638.8,-0.14902
1638.81,-0.14834
1638.82,-0.14812
1638.83,-0.14676
1638.84,-0.14683
1638.85,-0.14571
1638.86,-0.14544
1638.87,-0.14454
1638.88,-0.14451
1638.89,-0.14466
1638.9,-0.14476
1638.91,-0.14445
1638.92,-0.14452
1638.93,-0.14484
1638.94,-0.14502
1638.95,-0.1452
1638.96,-0.14551
1638.97,-0.14512
1638.98,-0.14593
1638.99,-0.14601
1639,-0.14742
1639.01,-0.14791
1639.02,-0.14862
1639.03,-0.15031
1639.04,-0.15108
1639.05,-0.15186
1639.06,-0.15175
1639.07,-0.15182
1639.08,-0.15085
1639.09,-0.1504
1639.1,-0.14892
1639.11,-0.14758
1639.12,-0.14657
1639.13,-0.14624
1639.14,-0.14525
1639.15,-0.14542
1639.16,-0.14471
1639.17,-0.14489
1639.18,-0.14437
1639.19,-0.14434
1639.2,-0.14397
1639.21,-0.14433
1639.22,-0.14443
1639.23,-0.14578
1639.24,-0.14514
1639.25,-0.147
1639.26,-0.14771
1639.27,-0.14936
1639.28,-0.14999
1639.29,-0.15096
1639.3,-0.15009
1639.31,-0.14998
1639.32,-0.14892
1639.33,-0.14872
1639.34,-0.1469
1639.35,-0.1465
1639.36,-0.14563
1639.37,-0.14491
1639.38,-0.14479
1639.39,-0.14465
1639.4,-0.14454
1639.41,-0.1434
1639.42,-0.14404
1639.43,-0.14399
1639.44,-0.14449
1639.45,-0.14506
1639.46,-0.14582
1639.47,-0.14635
1639.48,-0.1469
1639.49,-0.14751
1639.5,-0.14805
1639.51,-0.14724
1639.52,-0.1475
1639.53,-0.14683
1639.54,-0.14672
1639.55,-0.14634
1639.56,-0.14601
1639.57,-0.14647
1639.58,-0.14741
1639.59,-0.14764
1639.6,-0.14855
1639.61,-0.14838
1639.62,-0.14818
1639.63,-0.14763
1639.64,-0.14712
1639.65,-0.14653
1639.66,-0.14571
1639.67,-0.14593
1639.68,-0.14582
1639.69,-0.14522
1639.7,-0.14511
1639.71,-0.14513
1639.72,-0.14483
1639.73,-0.1448
1639.74,-0.14484
1639.75,-0.14435
1639.76,-0.14412
1639.77,-0.14385
1639.78,-0.14369
1639.79,-0.14415
1639.8,-0.14447
1639.81,-0.14416
1639.82,-0.14463
1639.83,-0.14466
1639.84,-0.145
1639.85,-0.14521
1639.86,-0.14463
1639.87,-0.14574
1639.88,-0.14571
1639.89,-0.1454
1639.9,-0.14617
1639.91,-0.14647
1639.92,-0.14676
1639.93,-0.14702
1639.94,-0.14695
1639.95,-0.1469
1639.96,-0.14731
1639.97,-0.14613
1639.98,-0.14675
1639.99,-0.1455
1640,-0.14556
1640.01,-0.14577
1640.02,-0.14491
1640.03,-0.14603
1640.04,-0.14607
1640.05,-0.14638
1640.06,-0.14667
1640.07,-0.14635
1640.08,-0.14638
1640.09,-0.14585
1640.1,-0.14603
1640.11,-0.14647
1640.12,-0.14823
1640.13,-0.14997
1640.14,-0.15226
1640.15,-0.15477
1640.16,-0.15448
1640.17,-0.15195
1640.18,-0.16017
1640.19,-0.20467
1640.2,-0.3233
1640.21,-0.55413
1640.22,-0.9195
1640.23,-1.41013
1640.24,-1.9631
1640.25,-2.49227
1640.26,-2.91668
1640.27,-3.19625
1640.28,-3.27703
1640.29,-3.17759
1640.3,-2.92225
1640.31,-2.52672
1640.32,-2.05244
1640.33,-1.5724
1640.34,-1.10664
1640.35,-0.72844
1640.36,-0.45965
1640.37,-0.29705
1640.38,-0.21031
1640.39,-0.17249
1640.4,-0.1578
1640.41,-0.15341
1640.42,-0.15175
1640.43,-0.15141
1640.44,-0.15066
1640.45,-0.15069
1640.46,-0.14982
1640.47,-0.14961
1640.48,-0.14976
1640.49,-0.14812
1640.5,-0.14951
1640.51,-0.14817
1640.52,-0.14764
1640.53,-0.14788
1640.54,-0.14744
1640.55,-0.1474
1640.56,-0.14699
1640.57,-0.14753
1640.58,-0.14667
1640.59,-0.14687
1640.6,-0.1471
1640.61,-0.1474
1640.62,-0.14899
1640.63,-0.14877
1640.64,-0.15049
1640.65,-0.14959
1640.66,-0.15092
1640.67,-0.15109
1640.68,-0.15155
1640.69,-0.1513
1640.7,-0.15069
1640.71,-0.15038
1640.72,-0.14961
1640.73,-0.14915
1640.74,-0.14819
1640.75,-0.14844
1640.76,-0.14638
1640.77,-0.14646
1640.78,-0.14581
1640.79,-0.14593
1640.8,-0.14606
1640.81,-0.14579
1640.82,-0.14614
1640.83,-0.14635
1640.84,-0.1464
1640.85,-0.14675
1640.86,-0.14681
1640.87,-0.14728
1640.88,-0.14775
1640.89,-0.14824
1640.9,-0.14919
1640.91,-0.14931
1640.92,-0.15098
1640.93,-0.15123
1640.94,-0.15147
1640.95,-0.15091
1640.96,-0.15076
1640.97,-0.15076
1640.98,-0.14977
1640.99,-0.14966
1641,-0.14901
1641.01,-0.14939
1641.02,-0.14955
1641.03,-0.15041
1641.04,-0.15086
1641.05,-0.15194
1641.06,-0.15264
1641.07,-0.15377
1641.08,-0.1538
1641.09,-0.15208
1641.1,-0.15303
1641.11,-0.15159
1641.12,-0.15097
1641.13,-0.14935
1641.14,-0.14901
1641.15,-0.14854
1641.16,-0.14767
1641.17,-0.14763
1641.18,-0.14766
1641.19,-0.14679
1641.2,-0.14688
1641.21,-0.14712
1641.22,-0.14665
1641.23,-0.14646
1641.24,-0.14724
1641.25,-0.14739
1641.26,-0.14797
1641.27,-0.14778
1641.28,-0.14979
1641.29,-0.14993
1641.3,-0.15122
1641.31,-0.15196
1641.32,-0.15172
1641.33,-0.15297
1641.34,-0.15314
1641.35,-0.15299
1641.36,-0.15373
1641.37,-0.15422
1641.38,-0.15437
1641.39,-0.15435
1641.4,-0.15413
1641.41,-0.15507
1641.42,-0.15362
1641.43,-0.1528
1641.44,-0.15165
1641.45,-0.15029
1641.46,-0.14941
1641.47,-0.14815
1641.48,-0.1476
1641.49,-0.14662
1641.5,-0.14694
1641.51,-0.14631
1641.52,-0.14641
1641.53,-0.14657
1641.54,-0.14575
1641.55,-0.1455
1641.56,-0.14539
1641.57,-0.14689
1641.58,-0.14482
1641.59,-0.14723
1641.6,-0.14623
1641.61,-0.14752
1641.62,-0.1478
1641.63,-0.1494
1641.64,-0.15066
1641.65,-0.15203
1641.66,-0.15378
1641.67,-0.15481
1641.68,-0.15572
1641.69,-0.15638
1641.7,-0.15639
1641.71,-0.15543
1641.72,-0.15481
1641.73,-0.15322
1641.74,-0.15258
1641.75,-0.15087
1641.76,-0.1496
1641.77,-0.1479
1641.78,-0.14748
1641.79,-0.14696
1641.8,-0.14669
1641.81,-0.14678
1641.82,-0.14615
1641.83,-0.14684
1641.84,-0.14634
1641.85,-0.14753
1641.86,-0.14745
1641.87,-0.14836
1641.88,-0.14944
1641.89,-0.15062
1641.9,-0.15273
1641.91,-0.15258
1641.92,-0.1541
1641.93,-0.15514
1641.94,-0.15364
1641.95,-0.15349
1641.96,-0.15257
1641.97,-0.15119
1641.98,-0.14981
1641.99,-0.14859
1642,-0.14782
1642.01,-0.14694
1642.02,-0.14656
1642.03,-0.1468
1642.04,-0.14659
1642.05,-0.14686
1642.06,-0.14632
1642.07,-0.1488
1642.08,-0.14804
1642.09,-0.149
1642.1,-0.14968
1642.11,-0.15013
1642.12,-0.15086
1642.13,-0.151
1642.14,-0.15111
1642.15,-0.15115
1642.16,-0.15035
1642.17,-0.14991
1642.18,-0.14976
1642.19,-0.14979
1642.2,-0.15029
1642.21,-0.15043
1642.22,-0.15073
1642.23,-0.15011
1642.24,-0.1517
1642.25,-0.1501
1642.26,-0.15042
1642.27,-0.1487
1642.28,-0.14926
1642.29,-0.14858
1642.3,-0.14819
1642.31,-0.1482
1642.32,-0.14722
1642.33,-0.14735
1642.34,-0.14731
1642.35,-0.14736
1642.36,-0.14754
1642.37,-0.14757
1642.38,-0.1473
1642.39,-0.14719
1642.4,-0.14682
1642.41,-0.14675
1642.42,-0.14666
1642.43,-0.14679
1642.44,-0.14635
1642.45,-0.14605
1642.46,-0.14655
1642.47,-0.14625
1642.48,-0.14656
1642.49,-0.1473
1642.5,-0.14705
1642.51,-0.14717
1642.52,-0.14736
1642.53,-0.1478
1642.54,-0.14715
1642.55,-0.14733
1642.56,-0.14687
1642.57,-0.14733
1642.58,-0.14743
1642.59,-0.14773
1642.6,-0.14876
1642.61,-0.14915
1642.62,-0.14903
1642.63,-0.14858
1642.64,-0.14858
1642.65,-0.14728
1642.66,-0.14744
1642.67,-0.14642
1642.68,-0.14733
1642.69,-0.14788
1642.7,-0.15022
1642.71,-0.15303
1642.72,-0.15444
1642.73,-0.15305
1642.74,-0.15226
1642.75,-0.18233
1642.76,-0.30476
1642.77,-0.58829
1642.78,-1.05166
1642.79,-1.70455
1642.8,-2.53346
1642.81,-3.35051
1642.82,-4.10272
1642.83,-4.7054
1642.84,-5.11652
1642.85,-5.27055
1642.86,-5.18372
1642.87,-4.82267
1642.88,-4.26527
1642.89,-3.51495
1642.9,-2.76154
1642.91,-2.00027
1642.92,-1.35147
1642.93,-0.85167
1642.94,-0.50763
1642.95,-0.31915
1642.96,-0.23027
1642.97,-0.18242
1642.98,-0.16303
1642.99,-0.15591
1643,-0.15289
1643.01,-0.15132
1643.02,-0.14951
1643.03,-0.14826
1643.04,-0.14776
1643.05,-0.14779
1643.06,-0.14758
1643.07,-0.14824
1643.08,-0.14853
1643.09,-0.14904
1643.1,-0.14913
1643.11,-0.14963
1643.12,-0.14983
1643.13,-0.1502
1643.14,-0.15037
1643.15,-0.14974
1643.16,-0.14922
1643.17,-0.14911
1643.18,-0.14874
1643.19,-0.14877
1643.2,-0.14817
1643.21,-0.14795
1643.22,-0.14779
1643.23,-0.14799
1643.24,-0.14748
1643.25,-0.14732
1643.26,-0.14766
1643.27,-0.14761
1643.28,-0.14855
1643.29,-0.14805
1643.3,-0.14867
1643.31,-0.14954
1643.32,-0.14963
1643.33,-0.15044
1643.34,-0.15108
1643.35,-0.15073
1643.36,-0.15157
1643.37,-0.15101
1643.38,-0.15163
1643.39,-0.15042
1643.4,-0.15018
1643.41,-0.15009
1643.42,-0.14897
1643.43,-0.14827
1643.44,-0.14768
1643.45,-0.1479
1643.46,-0.14721
1643.47,-0.14726
1643.48,-0.14677
1643.49,-0.14684
1643.5,-0.1474
1643.51,-0.14698
1643.52,-0.14711
1643.53,-0.14749
1643.54,-0.14752
1643.55,-0.14822
1643.56,-0.14834
1643.57,-0.14838
1643.58,-0.14908
1643.59,-0.14968
1643.6,-0.15008
1643.61,-0.15018
1643.62,-0.15175
1643.63,-0.15085
1643.64,-0.15116
1643.65,-0.15122
1643.66,-0.15081
1643.67,-0.15094
1643.68,-0.15003
1643.69,-0.14985
1643.7,-0.15026
1643.71,-0.15066
1643.72,-0.1512
1643.73,-0.1531
1643.74,-0.15299
1643.75,-0.15313
1643.76,-0.15407
1643.77,-0.1538
1643.78,-0.15368
1643.79,-0.15278
1643.8,-0.15197
1643.81,-0.1513
1643.82,-0.15035
1643.83,-0.14978
1643.84,-0.14911
1643.85,-0.14885
1643.86,-0.14865
1643.87,-0.14846
1643.88,-0.14851
1643.89,-0.14786
1643.9,-0.1479
1643.91,-0.14794
1643.92,-0.14826
1643.93,-0.14837
1643.94,-0.14863
1643.95,-0.14946
1643.96,-0.15
1643.97,-0.1506
1643.98,-0.15118
1643.99,-0.15165
1644,-0.15236
1644.01,-0.15279
1644.02,-0.15335
1644.03,-0.15366
1644.04,-0.15367
1644.05,-0.15422
1644.06,-0.15431
1644.07,-0.15479
1644.08,-0.1554
1644.09,-0.15525
1644.1,-0.15499
1644.11,-0.1546
1644.12,-0.1537
1644.13,-0.15208
1644.14,-0.15105
1644.15,-0.15046
1644.16,-0.14956
1644.17,-0.14899
1644.18,-0.14838
1644.19,-0.1485
1644.2,-0.14825
1644.21,-0.14814
1644.22,-0.14804
1644.23,-0.14779
1644.24,-0.14814
1644.25,-0.14746
1644.26,-0.14791
1644.27,-0.14783
1644.28,-0.14886
1644.29,-0.14847
1644.3,-0.14907
1644.31,-0.14993
1644.32,-0.15068
1644.33,-0.15139
1644.34,-0.15262
1644.35,-0.15417
1644.36,-0.15473
1644.37,-0.15622
1644.38,-0.15675
1644.39,-0.15679
1644.4,-0.15668
1644.41,-0.15535
1644.42,-0.15451
1644.43,-0.15351
1644.44,-0.15217
1644.45,-0.15147
1644.46,-0.15047
1644.47,-0.14943
1644.48,-0.14868
1644.49,-0.14894
1644.5,-0.14869
1644.51,-0.14952
1644.52,-0.14877
1644.53,-0.14899
1644.54,-0.14926
1644.55,-0.14944
1644.56,-0.15069
1644.57,-0.15061
1644.58,-0.15191
1644.59,-0.15327
1644.6,-0.15318
1644.61,-0.15542
1644.62,-0.15531
1644.63,-0.15523
1644.64,-0.15472
1644.65,-0.15396
1644.66,-0.15303
1644.67,-0.15198
1644.68,-0.15118
1644.69,-0.1499
1644.7,-0.14977
1644.71,-0.14929
1644.72,-0.14899
1644.73,-0.14837
1644.74,-0.15037
1644.75,-0.14919
1644.76,-0.14979
1644.77,-0.1504
1644.78,-0.15102
1644.79,-0.15077
1644.8,-0.15168
1644.81,-0.15216
1644.82,-0.15248
1644.83,-0.15247
1644.84,-0.15254
1644.85,-0.152
1644.86,-0.15138
1644.87,-0.15224
1644.88,-0.15149
1644.89,-0.15236
1644.9,-0.15188
1644.91,-0.15195
1644.92,-0.15348
1644.93,-0.15176
1644.94,-0.15242
1644.95,-0.15216
1644.96,-0.15158
1644.97,-0.15175
1644.98,-0.15083
1644.99,-0.15121
1645,-0.15087
1645.01,-0.15078
1645.02,-0.15098
1645.03,-0.15072
1645.04,-0.15007
1645.05,-0.15095
1645.06,-0.14984
1645.07,-0.15194
1645.08,-0.15021
1645.09,-0.1502
1645.1,-0.15
1645.11,-0.15074
1645.12,-0.1506
1645.13,-0.15043
1645.14,-0.15017
1645.15,-0.1495
1645.16,-0.1492
1645.17,-0.14891
1645.18,-0.14853
1645.19,-0.14902
1645.2,-0.14904
1645.21,-0.14987
1645.22,-0.1499
1645.23,-0.15205
1645.24,-0.15002
1645.25,-0.15132
1645.26,-0.15098
1645.27,-0.15101
1645.28,-0.15011
1645.29,-0.15073
1645.3,-0.15133
1645.31,-0.15156
1645.32,-0.15268
1645.33,-0.15597
1645.34,-0.15949
1645.35,-0.16082
1645.36,-0.15627
1645.37,-0.15733
1645.38,-0.21807
1645.39,-0.43562
1645.4,-0.9142
1645.41,-1.62259
1645.42,-2.52743
1645.43,-3.57233
1645.44,-4.60771
1645.45,-5.50734
1645.46,-6.20663
1645.47,-6.65725
1645.48,-6.82696
1645.49,-6.72784
1645.5,-6.34592
1645.51,-5.72044
1645.52,-4.87085
1645.53,-3.93943
1645.54,-2.95551
1645.55,-2.07938
1645.56,-1.33923
1645.57,-0.80637
1645.58,-0.47164
1645.59,-0.29522
1645.6,-0.21576
1645.61,-0.18223
1645.62,-0.16926
1645.63,-0.16316
1645.64,-0.16007
1645.65,-0.15762
1645.66,-0.15448
1645.67,-0.15277
1645.68,-0.1514
1645.69,-0.15062
1645.7,-0.15106
1645.71,-0.1505
1645.72,-0.15112
1645.73,-0.15094
1645.74,-0.15166
1645.75,-0.15194
1645.76,-0.15218
1645.77,-0.15157
1645.78,-0.15217
1645.79,-0.15193
1645.8,-0.15163
1645.81,-0.15231
1645.82,-0.15247
1645.83,-0.15246
1645.84,-0.1528
1645.85,-0.15313
1645.86,-0.15332
1645.87,-0.15311
1645.88,-0.15331
1645.89,-0.1519
1645.9,-0.15158
1645.91,-0.15125
1645.92,-0.15009
1645.93,-0.15006
1645.94,-0.15075
1645.95,-0.15035
1645.96,-0.15068
1645.97,-0.15083
1645.98,-0.15093
1645.99,-0.15068
1646,-0.15302
1646.01,-0.15175
1646.02,-0.1529
1646.03,-0.15365
1646.04,-0.15403
1646.05,-0.15506
1646.06,-0.15528
1646.07,-0.15562
1646.08,-0.15516
1646.09,-0.15537
1646.1,-0.15525
1646.11,-0.15402
1646.12,-0.15387
1646.13,-0.1525
1646.14,-0.15252
1646.15,-0.15124
1646.16,-0.15134
1646.17,-0.14971
1646.18,-0.15014
1646.19,-0.15047
1646.2,-0.15044
1646.21,-0.15032
1646.22,-0.1501
1646.23,-0.15158
1646.24,-0.15017
1646.25,-0.15093
1646.26,-0.1505
1646.27,-0.15212
1646.28,-0.15181
1646.29,-0.15245
1646.3,-0.15301
1646.31,-0.15389
1646.32,-0.15376
1646.33,-0.15493
1646.34,-0.15443
1646.35,-0.15449
1646.36,-0.15363
1646.37,-0.15342
1646.38,-0.15314
1646.39,-0.15317
1646.4,-0.15281
1646.41,-0.15371
1646.42,-0.15411
1646.43,-0.15484
1646.44,-0.15574
1646.45,-0.15672
1646.46,-0.15718
1646.47,-0.15743
1646.48,-0.15699
1646.49,-0.15689
1646.5,-0.15574
1646.51,-0.1552
1646.52,-0.15404
1646.53,-0.15345
1646.54,-0.15275
1646.55,-0.15203
1646.56,-0.15148
1646.57,-0.151
1646.58,-0.1509
1646.59,-0.15022
1646.6,-0.14974
1646.61,-0.15018
1646.62,-0.1503
1646.63,-0.14993
1646.64,-0.1502
1646.65,-0.15062
1646.66,-0.15113
1646.67,-0.15163
1646.68,-0.15236
1646.69,-0.15301
1646.7,-0.15391
1646.71,-0.1544
1646.72,-0.15496
1646.73,-0.15561
1646.74,-0.1562
1646.75,-0.15643
1646.76,-0.15677
1646.77,-0.15788
1646.78,-0.15841
1646.79,-0.15806
1646.8,-0.15795
1646.81,-0.15729
1646.82,-0.15636
1646.83,-0.15568
1646.84,-0.15512
1646.85,-0.15325
1646.86,-0.15237
1646.87,-0.15178
1646.88,-0.1504
1646.89,-0.15085
1646.9,-0.1501
1646.91,-0.14951
1646.92,-0.14914
1646.93,-0.14926
1646.94,-0.14894
1646.95,-0.14888
1646.96,-0.14899
1646.97,-0.14923
1646.98,-0.14913
1646.99,-0.14935
1647,-0.14997
1647.01,-0.15008
1647.02,-0.15065
1647.03,-0.15159
1647.04,-0.15259
1647.05,-0.15395
1647.06,-0.15507
1647.07,-0.15685
1647.08,-0.15783
1647.09,-0.15816
1647.1,-0.15894
1647.11,-0.15817
1647.12,-0.15788
1647.13,-0.15647
1647.14,-0.15523
1647.15,-0.1543
1647.16,-0.15257
1647.17,-0.15203
1647.18,-0.1514
1647.19,-0.15145
1647.2,-0.15058
1647.21,-0.15063
1647.22,-0.15149
1647.23,-0.15067
1647.24,-0.15076
1647.25,-0.15051
1647.26,-0.15106
1647.27,-0.1508
1647.28,-0.15224
1647.29,-0.15287
1647.3,-0.15467
1647.31,-0.15639
1647.32,-0.15667
1647.33,-0.15696
1647.34,-0.15704
1647.35,-0.15678
1647.36,-0.15524
1647.37,-0.15452
1647.38,-0.15319
1647.39,-0.15192
1647.4,-0.15204
1647.41,-0.15119
1647.42,-0.15106
1647.43,-0.15073
1647.44,-0.15103
1647.45,-0.15101
1647.46,-0.15134
1647.47,-0.15159
1647.48,-0.1516
1647.49,-0.1519
1647.5,-0.15243
1647.51,-0.15296
1647.52,-0.15403
1647.53,-0.1544
1647.54,-0.15472
1647.55,-0.15482
1647.56,-0.15403
1647.57,-0.15403
1647.58,-0.15344
1647.59,-0.15256
1647.6,-0.15311
1647.61,-0.15332
1647.62,-0.15327
1647.63,-0.15416
1647.64,-0.15385
1647.65,-0.15367
1647.66,-0.15388
1647.67,-0.15284
1647.68,-0.15214
1647.69,-0.15191
1647.7,-0.15155
1647.71,-0.15094
1647.72,-0.15024
1647.73,-0.1521
1647.74,-0.15021
1647.75,-0.15178
1647.76,-0.1518
1647.77,-0.15167
1647.78,-0.15208
1647.79,-0.15176
1647.8,-0.15358
1647.81,-0.15311
1647.82,-0.15349
1647.83,-0.15252
1647.84,-0.15209
1647.85,-0.15155
1647.86,-0.15134
1647.87,-0.15084
1647.88,-0.15134
1647.89,-0.15106
1647.9,-0.15086
1647.91,-0.15132
1647.92,-0.15119
1647.93,-0.15172
1647.94,-0.15132
1647.95,-0.1512
1647.96,-0.15088
1647.97,-0.1509
1647.98,-0.15122
1647.99,-0.15179
1648,-0.15238
1648.01,-0.15416
1648.02,-0.15607
1648.03,-0.16014
1648.04,-0.16092
1648.05,-0.1598
1648.06,-0.15846
1648.07,-0.17443
1648.08,-0.26184
1648.09,-0.49631
1648.1,-0.96752
1648.11,-1.66662
1648.12,-2.54231
1648.13,-3.43791
1648.14,-4.22362
1648.15,-4.86266
1648.16,-5.30506
1648.17,-5.44307
1648.18,-5.33405
1648.19,-5.03124
1648.2,-4.54647
1648.21,-3.88006
1648.22,-3.12584
1648.23,-2.34284
1648.24,-1.61693
1648.25,-0.99782
1648.26,-0.59069
1648.27,-0.35302
1648.28,-0.24225
1648.29,-0.19401
1648.3,-0.17212
1648.31,-0.16468
1648.32,-0.16105
1648.33,-0.15957
1648.34,-0.15736
1648.35,-0.15697
1648.36,-0.1557
1648.37,-0.15493
1648.38,-0.15466
1648.39,-0.15399
1648.4,-0.15341
1648.41,-0.15326
1648.42,-0.15301
1648.43,-0.15325
1648.44,-0.15307
1648.45,-0.15302
1648.46,-0.15311
1648.47,-0.15268
1648.48,-0.15201
1648.49,-0.15236
1648.5,-0.15073
1648.51,-0.15129
1648.52,-0.15224
1648.53,-0.15177
1648.54,-0.15219
1648.55,-0.15272
1648.56,-0.15297
1648.57,-0.15335
1648.58,-0.1538
1648.59,-0.1537
1648.6,-0.15348
1648.61,-0.15359
1648.62,-0.15326
1648.63,-0.15399
1648.64,-0.15367
1648.65,-0.15303
1648.66,-0.15288
1648.67,-0.15224
1648.68,-0.15204
1648.69,-0.15223
1648.7,-0.15169
1648.71,-0.15153
1648.72,-0.15176
1648.73,-0.15175
1648.74,-0.15225
1648.75,-0.15176
1648.76,-0.15282
1648.77,-0.15298
1648.78,-0.15367
1648.79,-0.15446
1648.8,-0.15547
1648.81,-0.15609
1648.82,-0.15674
1648.83,-0.1567
1648.84,-0.15643
1648.85,-0.15598
1648.86,-0.15588
1648.87,-0.15534
1648.88,-0.15452
1648.89,-0.15371
1648.9,-0.15296
1648.91,-0.15298
1648.92,-0.15225
1648.93,-0.15194
1648.94,-0.15146
1648.95,-0.15133
1648.96,-0.15111
1648.97,-0.15144
1648.98,-0.15116
1648.99,-0.15174
1649,-0.1517
1649.01,-0.15215
1649.02,-0.15199
1649.03,-0.15259
1649.04,-0.15285
1649.05,-0.1531
1649.06,-0.15352
1649.07,-0.15401
1649.08,-0.15465
1649.09,-0.15471
1649.1,-0.15508
1649.11,-0.15525
1649.12,-0.15504
1649.13,-0.15493
1649.14,-0.15428
1649.15,-0.15446
1649.16,-0.15388
1649.17,-0.15417
1649.18,-0.15466
1649.19,-0.1549
1649.2,-0.15626
1649.21,-0.15638
1649.22,-0.15776
1649.23,-0.15859
1649.24,-0.15866
1649.25,-0.15846
1649.26,-0.15817
1649.27,-0.15737
1649.28,-0.15591
1649.29,-0.15556
1649.3,-0.15416
1649.31,-0.15406
1649.32,-0.15328
1649.33,-0.15328
1649.34,-0.15244
1649.35,-0.15265
1649.36,-0.15242
1649.37,-0.1518
1649.38,-0.15168
1649.39,-0.15205
1649.4,-0.15165
1649.41,-0.15201
1649.42,-0.15233
1649.43,-0.15261
1649.44,-0.15345
1649.45,-0.1539
1649.46,-0.15442
1649.47,-0.15546
1649.48,-0.15651
1649.49,-0.15733
1649.5,-0.15679
1649.51,-0.15775
1649.52,-0.15841
1649.53,-0.15817
1649.54,-0.15955
1649.55,-0.15931
1649.56,-0.15989
1649.57,-0.16009
1649.58,-0.15944
1649.59,-0.15951
1649.6,-0.15784
1649.61,-0.15698
1649.62,-0.15583
1649.63,-0.15481
1649.64,-0.15377
1649.65,-0.15345
1649.66,-0.15259
1649.67,-0.15246
1649.68,-0.1521
1649.69,-0.15256
1649.7,-0.15155
1649.71,-0.15204
1649.72,-0.15192
1649.73,-0.15211
1649.74,-0.15169
1649.75,-0.15159
1649.76,-0.15165
1649.77,-0.1521
1649.78,-0.15265
1649.79,-0.15327
1649.8,-0.15406
1649.81,-0.15502
1649.82,-0.15596
1649.83,-0.15706
1649.84,-0.15788
1649.85,-0.1589
1649.86,-0.15942
1649.87,-0.16028
1649.88,-0.15874
1649.89,-0.15915
1649.9,-0.15792
1649.91,-0.15697
1649.92,-0.15599
1649.93,-0.15454
1649.94,-0.15373
1649.95,-0.15277
1649.96,-0.15253
1649.97,-0.15284
1649.98,-0.15188
1649.99,-0.15243
1650,-0.15219
1650.01,-0.15271
1650.02,-0.15281
1650.03,-0.15285
1650.04,-0.15389
1650.05,-0.15392
1650.06,-0.1549
1650.07,-0.1559
1650.08,-0.1568
1650.09,-0.15757
1650.1,-0.15873
1650.11,-0.15853
1650.12,-0.15829
1650.13,-0.1571
1650.14,-0.15627
1650.15,-0.15505
1650.16,-0.15411
1650.17,-0.15298
1650.18,-0.15246
1650.19,-0.15226
1650.2,-0.15228
1650.21,-0.15164
1650.22,-0.15193
1650.23,-0.15248
1650.24,-0.15272
1650.25,-0.15303
1650.26,-0.15365
1650.27,-0.15446
1650.28,-0.15502
1650.29,-0.15563
1650.3,-0.15587
1650.31,-0.15563
1650.32,-0.15616
1650.33,-0.15562
1650.34,-0.15506
1650.35,-0.15519
1650.36,-0.15533
1650.37,-0.15511
1650.38,-0.15405
1650.39,-0.15485
1650.4,-0.15477
1650.41,-0.15546
1650.42,-0.15521
1650.43,-0.15438
1650.44,-0.15426
1650.45,-0.15357
1650.46,-0.15268
1650.47,-0.15322
1650.48,-0.15189
1650.49,-0.15237
1650.5,-0.15137
1650.51,-0.15148
1650.52,-0.15173
1650.53,-0.15212
1650.54,-0.15238
1650.55,-0.15229
1650.56,-0.15194
1650.57,-0.15197
1650.58,-0.15247
1650.59,-0.15257
1650.6,-0.15238
1650.61,-0.15241
1650.62,-0.15296
1650.63,-0.15401
1650.64,-0.15318
1650.65,-0.15455
1650.66,-0.15387
1650.67,-0.15337
1650.68,-0.15293
1650.69,-0.15265
1650.7,-0.15322
1650.71,-0.1534
1650.72,-0.15502
1650.73,-0.1574
1650.74,-0.16041
1650.75,-0.16327
1650.76,-0.16106
1650.77,-0.15736
1650.78,-0.18469
1650.79,-0.31249
1650.8,-0.61489
1650.81,-1.10997
1650.82,-1.81585
1650.83,-2.71978
1650.84,-3.6654
1650.85,-4.53302
1650.86,-5.23215
1650.87,-5.69163
1650.88,-5.89601
1650.89,-5.84605
1650.9,-5.55177
1650.91,-5.03503
1650.92,-4.35129
1650.93,-3.56173
1650.94,-2.69487
1650.95,-1.86813
1650.96,-1.19528
1650.97,-0.72522
1650.98,-0.43864
1650.99,-0.2838
1651,-0.21204
1651.01,-0.17895
1651.02,-0.16691
1651.03,-0.16153
1651.04,-0.15901
1651.05,-0.15595
1651.06,-0.1545
1651.07,-0.1531
1651.08,-0.15287
1651.09,-0.15304
1651.1,-0.15274
1651.11,-0.15264
1651.12,-0.15354
1651.13,-0.15322
1651.14,-0.15442
1651.15,-0.15379
1651.16,-0.15451
1651.17,-0.15415
1651.18,-0.15352
1651.19,-0.15362
1651.2,-0.1535
1651.21,-0.15377
1651.22,-0.15364
1651.23,-0.154
1651.24,-0.15296
1651.25,-0.15366
1651.26,-0.15302
1651.27,-0.15377
1651.28,-0.15326
1651.29,-0.15238
1651.3,-0.15273
1651.31,-0.15253
1651.32,-0.15225
1651.33,-0.15259
1651.34,-0.15244
1651.35,-0.15267
1651.36,-0.15343
1651.37,-0.15249
1651.38,-0.15351
1651.39,-0.15335
1651.4,-0.1528
1651.41,-0.15392
1651.42,-0.15321
1651.43,-0.15364
1651.44,-0.15326
1651.45,-0.15381
1651.46,-0.1537
1651.47,-0.15387
1651.48,-0.15391
1651.49,-0.15385
1651.5,-0.15354
1651.51,-0.15326
1651.52,-0.15328
1651.53,-0.15348
1651.54,-0.15291
1651.55,-0.15307
1651.56,-0.15292
1651.57,-0.15294
1651.58,-0.15307
1651.59,-0.15355
1651.6,-0.15363
1651.61,-0.15358
1651.62,-0.15471
1651.63,-0.15422
1651.64,-0.15503
1651.65,-0.1546
1651.66,-0.15552
1651.67,-0.15535
1651.68,-0.15554
1651.69,-0.15544
1651.7,-0.15536
1651.71,-0.15578
1651.72,-0.1544
1651.73,-0.15449
1651.74,-0.15393
1651.75,-0.15346
1651.76,-0.15368
1651.77,-0.15259
1651.78,-0.15351
1651.79,-0.1535
1651.8,-0.15356
1651.81,-0.15324
1651.82,-0.15355
1651.83,-0.15378
1651.84,-0.15315
1651.85,-0.15385
1651.86,-0.1526
1651.87,-0.15431
1651.88,-0.1539
1651.89,-0.1544
1651.9,-0.15471
1651.91,-0.15518
1651.92,-0.15491
1651.93,-0.15542
1651.94,-0.15561
1651.95,-0.15476
1651.96,-0.1552
1651.97,-0.15491
1651.98,-0.15427
1651.99,-0.15643
1652,-0.15412
1652.01,-0.15457
1652.02,-0.15514
1652.03,-0.15569
1652.04,-0.1555
1652.05,-0.15659
1652.06,-0.15652
1652.07,-0.15603
1652.08,-0.15628
1652.09,-0.15629
1652.1,-0.15575
1652.11,-0.15683
1652.12,-0.15533
1652.13,-0.15524
1652.14,-0.15463
1652.15,-0.15431
1652.16,-0.15443
1652.17,-0.1538
1652.18,-0.15414
1652.19,-0.15361
1652.2,-0.15336
1652.21,-0.15332
1652.22,-0.15351
1652.23,-0.15319
1652.24,-0.15383
1652.25,-0.15322
1652.26,-0.15305
1652.27,-0.15445
1652.28,-0.15411
1652.29,-0.15392
1652.3,-0.15429
1652.31,-0.15464
1652.32,-0.15484
1652.33,-0.1553
1652.34,-0.15618
1652.35,-0.15578
1652.36,-0.15619
1652.37,-0.1567
1652.38,-0.15729
1652.39,-0.15715
1652.4,-0.15694
1652.41,-0.15649
1652.42,-0.15645
1652.43,-0.15604
1652.44,-0.15628
1652.45,-0.15566
1652.46,-0.15508
1652.47,-0.15498
1652.48,-0.15407
1652.49,-0.15392
1652.5,-0.15401
1652.51,-0.15334
1652.52,-0.15287
1652.53,-0.153
1652.54,-0.15427
1652.55,-0.15237
1652.56,-0.15267
1652.57,-0.15322
1652.58,-0.15313
1652.59,-0.15329
1652.6,-0.15333
1652.61,-0.1534
1652.62,-0.15366
1652.63,-0.15281
1652.64,-0.15524
1652.65,-0.15417
1652.66,-0.15486
1652.67,-0.15528
1652.68,-0.15625
1652.69,-0.1567
1652.7,-0.15747
1652.71,-0.1574
1652.72,-0.15702
1652.73,-0.15574
1652.74,-0.15754
1652.75,-0.15495
1652.76,-0.15489
1652.77,-0.15434
1652.78,-0.15411
1652.79,-0.15389
1652.8,-0.15411
1652.81,-0.154
1652.82,-0.15414
1652.83,-0.15375
1652.84,-0.15392
1652.85,-0.15345
1652.86,-0.15362
1652.87,-0.15344
1652.88,-0.15443
1652.89,-0.15362
1652.9,-0.15485
1652.91,-0.15514
1652.92,-0.15571
1652.93,-0.15617
1652.94,-0.15657
1652.95,-0.15685
1652.96,-0.15638
1652.97,-0.15559
1652.98,-0.1545
1652.99,-0.15642
1653,-0.15399
1653.01,-0.15383
1653.02,-0.15503
1653.03,-0.1537
1653.04,-0.15376
1653.05,-0.15413
1653.06,-0.15385
1653.07,-0.15434
1653.08,-0.15362
1653.09,-0.15371
1653.1,-0.15499
1653.11,-0.15391
1653.12,-0.15473
1653.13,-0.15534
1653.14,-0.15559
1653.15,-0.15583
1653.16,-0.15591
1653.17,-0.15526
1653.18,-0.15555
1653.19,-0.15588
1653.2,-0.15376
1653.21,-0.15465
1653.22,-0.15459
1653.23,-0.15448
1653.24,-0.15446
1653.25,-0.15509
1653.26,-0.15577
1653.27,-0.15551
1653.28,-0.15552
1653.29,-0.15574
1653.3,-0.15554
1653.31,-0.15468
1653.32,-0.15492
1653.33,-0.15441
1653.34,-0.15361
1653.35,-0.15397
1653.36,-0.15437
1653.37,-0.15419
1653.38,-0.15473
1653.39,-0.15484
1653.4,-0.15424
1653.41,-0.15509
1653.42,-0.15518
1653.43,-0.15539
1653.44,-0.15436
1653.45,-0.15481
1653.46,-0.15424
1653.47,-0.15535
1653.48,-0.15546
1653.49,-0.15524
1653.5,-0.15694
1653.51,-0.16106
1653.52,-0.16407
1653.53,-0.16354
1653.54,-0.15955
1653.55,-0.17425
1653.56,-0.25785
1653.57,-0.47413
1653.58,-0.83266
1653.59,-1.39487
1653.6,-2.18874
1653.61,-2.95943
1653.62,-3.76894
1653.63,-4.50951
1653.64,-5.0333
1653.65,-5.30684
1653.66,-5.33583
1653.67,-5.11014
1653.68,-4.64795
1653.69,-4.04629
1653.7,-3.31083
1653.71,-2.53891
1653.72,-1.8185
1653.73,-1.20692
1653.74,-0.7242
1653.75,-0.43724
1653.76,-0.28246
1653.77,-0.21157
1653.78,-0.18077
1653.79,-0.16914
1653.8,-0.16403
1653.81,-0.16138
1653.82,-0.15982
1653.83,-0.15817
1653.84,-0.15738
1653.85,-0.15567
1653.86,-0.15514
1653.87,-0.15468
1653.88,-0.15516
1653.89,-0.15378
1653.9,-0.15655
1653.91,-0.1549
1653.92,-0.1559
1653.93,-0.1563
1653.94,-0.15618
1653.95,-0.15571
1653.96,-0.15522
1653.97,-0.15516
1653.98,-0.1551
1653.99,-0.1551
1654,-0.15548
1654.01,-0.15539
1654.02,-0.15551
1654.03,-0.15541
1654.04,-0.15573
1654.05,-0.15571
1654.06,-0.15551
1654.07,-0.15562
1654.08,-0.15492
1654.09,-0.15566
1654.1,-0.1543
1654.11,-0.1551
1654.12,-0.15496
1654.13,-0.15532
1654.14,-0.15459
1654.15,-0.15459
1654.16,-0.15507
1654.17,-0.15457
1654.18,-0.15509
1654.19,-0.15452
1654.2,-0.15496
1654.21,-0.15437
1654.22,-0.15496
1654.23,-0.1548
1654.24,-0.15431
1654.25,-0.15527
1654.26,-0.15506
1654.27,-0.15537
1654.28,-0.15574
1654.29,-0.15579
1654.3,-0.15567
1654.31,-0.15535
1654.32,-0.155
1654.33,-0.15522
1654.34,-0.15521
1654.35,-0.15458
1654.36,-0.15531
1654.37,-0.1551
1654.38,-0.15519
1654.39,-0.15505
1654.4,-0.15527
1654.41,-0.15474
1654.42,-0.15477
1654.43,-0.15486
1654.44,-0.15474
1654.45,-0.15501
1654.46,-0.15545
1654.47,-0.15598
1654.48,-0.15583
1654.49,-0.15613
1654.5,-0.15675
1654.51,-0.1558
1654.52,-0.15582
1654.53,-0.15611
1654.54,-0.15554
1654.55,-0.15543
1654.56,-0.1558
1654.57,-0.15503
1654.58,-0.15538
1654.59,-0.15506
1654.6,-0.15552
1654.61,-0.15503
1654.62,-0.15517
1654.63,-0.15501
1654.64,-0.15497
1654.65,-0.15477
1654.66,-0.15474
1654.67,-0.15461
1654.68,-0.15508
1654.69,-0.15482
1654.7,-0.15542
1654.71,-0.15475
1654.72,-0.15554
1654.73,-0.15616
1654.74,-0.15518
1654.75,-0.15532
1654.76,-0.15574
1654.77,-0.15583
1654.78,-0.15537
1654.79,-0.15571
1654.8,-0.15555
1654.81,-0.15547
1654.82,-0.15577
1654.83,-0.15545
1654.84,-0.15622
1654.85,-0.15601
1654.86,-0.15604
1654.87,-0.15571
1654.88,-0.15543
1654.89,-0.15617
1654.9,-0.15609
1654.91,-0.15637
1654.92,-0.15669
1654.93,-0.15686
1654.94,-0.15703
1654.95,-0.15688
1654.96,-0.15687
1654.97,-0.15646
1654.98,-0.15605
1654.99,-0.15521
1655,-0.15623
1655.01,-0.15522
1655.02,-0.1556
1655.03,-0.15591
1655.04,-0.1557
1655.05,-0.15596
1655.06,-0.15539
1655.07,-0.15527
1655.08,-0.15556
1655.09,-0.15575
1655.1,-0.15494
1655.11,-0.15572
1655.12,-0.15516
1655.13,-0.15557
1655.14,-0.15553
1655.15,-0.1559
1655.16,-0.15612
1655.17,-0.15624
1655.18,-0.1564
1655.19,-0.15655
1655.2,-0.1562
1655.21,-0.15672
1655.22,-0.15657
1655.23,-0.15657
1655.24,-0.15711
1655.25,-0.15686
1655.26,-0.15732
1655.27,-0.15675
1655.28,-0.15723
1655.29,-0.15668
1655.3,-0.15685
1655.31,-0.1555
1655.32,-0.15647
1655.33,-0.15532
1655.34,-0.15593
1655.35,-0.1553
1655.36,-0.15547
1655.37,-0.15557
1655.38,-0.15578
1655.39,-0.15555
1655.4,-0.15579
1655.41,-0.15575
1655.42,-0.15539
1655.43,-0.15501
1655.44,-0.15498
1655.45,-0.15563
1655.46,-0.15528
1655.47,-0.15532
1655.48,-0.15576
1655.49,-0.15591
1655.5,-0.15652
1655.51,-0.15618
1655.52,-0.15681
1655.53,-0.15686
1655.54,-0.15673
1655.55,-0.15753
1655.56,-0.15684
1655.57,-0.15721
1655.58,-0.15746
1655.59,-0.15688
1655.6,-0.15642
1655.61,-0.15725
1655.62,-0.15651
1655.63,-0.15633
1655.64,-0.15619
1655.65,-0.15696
1655.66,-0.15541
1655.67,-0.1562
1655.68,-0.15583
1655.69,-0.15607
1655.7,-0.15613
1655.71,-0.1568
1655.72,-0.15656
1655.73,-0.1564
1655.74,-0.15662
1655.75,-0.15628
1655.76,-0.157
1655.77,-0.15689
1655.78,-0.15712
1655.79,-0.15728
1655.8,-0.15763
1655.81,-0.15677
1655.82,-0.15761
1655.83,-0.1572
1655.84,-0.15669
1655.85,-0.15706
1655.86,-0.15643
1655.87,-0.15607
1655.88,-0.15541
1655.89,-0.15621
1655.9,-0.15559
1655.91,-0.15557
1655.92,-0.15617
1655.93,-0.15615
1655.94,-0.15606
1655.95,-0.1562
1655.96,-0.15626
1655.97,-0.1564
1655.98,-0.15664
1655.99,-0.15663
1656,-0.15681
1656.01,-0.15687
1656.02,-0.15722
1656.03,-0.15685
1656.04,-0.15722
1656.05,-0.15674
1656.06,-0.15712
1656.07,-0.15719
1656.08,-0.1574
1656.09,-0.15702
1656.1,-0.15656
1656.11,-0.15682
1656.12,-0.15725
1656.13,-0.15705
1656.14,-0.15654
1656.15,-0.15653
1656.16,-0.15702
1656.17,-0.15672
1656.18,-0.15651
1656.19,-0.15618
1656.2,-0.15604
1656.21,-0.15602
1656.22,-0.15605
1656.23,-0.15594
1656.24,-0.15599
1656.25,-0.15653
1656.26,-0.15689
1656.27,-0.15696
1656.28,-0.15707
1656.29,-0.15696
1656.3,-0.15639
1656.31,-0.15686
1656.32,-0.15709
1656.33,-0.15677
1656.34,-0.15769
1656.35,-0.15896
1656.36,-0.16105
1656.37,-0.16258
1656.38,-0.161
1656.39,-0.15857
1656.4,-0.16746
1656.41,-0.20914
1656.42,-0.32427
1656.43,-0.53776
1656.44,-0.84007
1656.45,-1.21602
1656.46,-1.62806
1656.47,-2.03548
1656.48,-2.34209
1656.49,-2.55277
1656.5,-2.63218
1656.51,-2.56316
1656.52,-2.34193
1656.53,-1.99933
1656.54,-1.59863
1656.55,-1.20365
1656.56,-0.85355
1656.57,-0.57601
1656.58,-0.37676
1656.59,-0.27341
1656.6,-0.2114
1656.61,-0.1806
1656.62,-0.16666
1656.63,-0.16193
1656.64,-0.16005
1656.65,-0.15925
1656.66,-0.15808
1656.67,-0.15773
1656.68,-0.15719
1656.69,-0.15748
1656.7,-0.15653
1656.71,-0.15703
1656.72,-0.15747
1656.73,-0.15702
1656.74,-0.15631
1656.75,-0.15749
1656.76,-0.15701
1656.77,-0.15667
1656.78,-0.15697
1656.79,-0.15704
1656.8,-0.15689
1656.81,-0.1565
1656.82,-0.15655
1656.83,-0.15657
1656.84,-0.15743
1656.85,-0.15682
1656.86,-0.15713
1656.87,-0.15702
1656.88,-0.15709
1656.89,-0.15662
1656.9,-0.15709
1656.91,-0.15754
1656.92,-0.15796
1656.93,-0.15787
1656.94,-0.15823
1656.95,-0.15742
1656.96,-0.15813
1656.97,-0.15753
1656.98,-0.1576
1656.99,-0.157
1657,-0.15692
1657.01,-0.15658
1657.02,-0.15718
1657.03,-0.15663
1657.04,-0.15745
1657.05,-0.15642
1657.06,-0.15742
1657.07,-0.15716
1657.08,-0.15739
1657.09,-0.15699
1657.1,-0.15684
1657.11,-0.15679
1657.12,-0.15703
1657.13,-0.15691
1657.14,-0.15679
1657.15,-0.15729
1657.16,-0.15707
1657.17,-0.1577
1657.18,-0.15796
1657.19,-0.1575
1657.2,-0.15773
1657.21,-0.15753
1657.22,-0.15784
1657.23,-0.15747
1657.24,-0.15783
1657.25,-0.15707
1657.26,-0.15727
1657.27,-0.1579
1657.28,-0.15779
1657.29,-0.15763
1657.3,-0.15784
1657.31,-0.15739
1657.32,-0.15746
1657.33,-0.15734
1657.34,-0.15733
1657.35,-0.15734
1657.36,-0.15789
1657.37,-0.15804
1657.38,-0.15795
1657.39,-0.15861
1657.4,-0.15866
1657.41,-0.15858
1657.42,-0.15871
1657.43,-0.15862
1657.44,-0.15847
1657.45,-0.15864
1657.46,-0.15844
1657.47,-0.15832
1657.48,-0.15838
1657.49,-0.15756
1657.5,-0.15794
1657.51,-0.15794
1657.52,-0.1577
1657.53,-0.15769
1657.54,-0.15756
1657.55,-0.15734
1657.56,-0.15703
1657.57,-0.15682
1657.58,-0.15722
1657.59,-0.15745
1657.6,-0.15688
1657.61,-0.15747
1657.62,-0.15762
1657.63,-0.15774
1657.64,-0.15747
1657.65,-0.15715
1657.66,-0.15744
1657.67,-0.15739
1657.68,-0.15752
1657.69,-0.15783
1657.7,-0.15808
1657.71,-0.15798
1657.72,-0.15807
1657.73,-0.15797
1657.74,-0.15835
1657.75,-0.1589
1657.76,-0.15847
1657.77,-0.15807
1657.78,-0.15797
1657.79,-0.15831
1657.8,-0.15813
1657.81,-0.15884
1657.82,-0.15873
1657.83,-0.15892
1657.84,-0.15893
1657.85,-0.15925
1657.86,-0.15949
1657.87,-0.15862
1657.88,-0.15874
1657.89,-0.15807
1657.9,-0.15768
1657.91,-0.15805
1657.92,-0.15756
1657.93,-0.15785
1657.94,-0.15767
1657.95,-0.15763
1657.96,-0.15802
1657.97,-0.15716
1657.98,-0.15749
1657.99,-0.15755
1658,-0.15756
1658.01,-0.15734
1658.02,-0.15774
1658.03,-0.15751
1658.04,-0.15692
1658.05,-0.15778
1658.06,-0.15809
1658.07,-0.15836
1658.08,-0.15851
1658.09,-0.15839
1658.1,-0.15875
1658.11,-0.15822
1658.12,-0.15906
1658.13,-0.15865
1658.14,-0.15881
1658.15,-0.15912
1658.16,-0.15938
1658.17,-0.15944
1658.18,-0.15965
1658.19,-0.15957
1658.2,-0.15944
1658.21,-0.15868
1658.22,-0.15809
1658.23,-0.1586
1658.24,-0.15815
1658.25,-0.15723
1658.26,-0.15763
1658.27,-0.15754
1658.28,-0.15755
1658.29,-0.15708
1658.3,-0.15775
1658.31,-0.1575
1658.32,-0.15735
1658.33,-0.15679
1658.34,-0.15692
1658.35,-0.15695
1658.36,-0.15697
1658.37,-0.15746
1658.38,-0.15747
1658.39,-0.15768
1658.4,-0.15708
1658.41,-0.15775
1658.42,-0.15789
1658.43,-0.15792
1658.44,-0.15778
1658.45,-0.15819
1658.46,-0.15882
1658.47,-0.15879
1658.48,-0.15942
1658.49,-0.15903
1658.5,-0.159
1658.51,-0.15894
1658.52,-0.15851
1658.53,-0.15771
1658.54,-0.15877
1658.55,-0.15787
1658.56,-0.15732
1658.57,-0.15751
1658.58,-0.15731
1658.59,-0.1576
1658.6,-0.15691
1658.61,-0.15738
1658.62,-0.15729
1658.63,-0.15778
1658.64,-0.15722
1658.65,-0.15752
1658.66,-0.1574
1658.67,-0.15775
1658.68,-0.15772
1658.69,-0.15787
1658.7,-0.15858
1658.71,-0.15828
1658.72,-0.15849
1658.73,-0.15948
1658.74,-0.15844
1658.75,-0.15837
1658.76,-0.15823
1658.77,-0.15826
1658.78,-0.15715
1658.79,-0.15785
1658.8,-0.15735
1658.81,-0.15777
1658.82,-0.1571
1658.83,-0.15759
1658.84,-0.15755
1658.85,-0.15774
1658.86,-0.158
1658.87,-0.15827
1658.88,-0.15731
1658.89,-0.15847
1658.9,-0.15714
1658.91,-0.15783
1658.92,-0.15864
1658.93,-0.1595
1658.94,-0.158
1658.95,-0.15892
1658.96,-0.15901
1658.97,-0.15817
1658.98,-0.1587
1658.99,-0.15888
1659,-0.1588
1659.01,-0.15866
1659.02,-0.15878
1659.03,-0.15857
1659.04,-0.15869
1659.05,-0.15822
1659.06,-0.15882
1659.07,-0.15901
1659.08,-0.15771
1659.09,-0.1589
1659.1,-0.15799
1659.11,-0.15826
1659.12,-0.15828
1659.13,-0.15812
1659.14,-0.15839
1659.15,-0.15801
1659.16,-0.15836
1659.17,-0.15769
1659.18,-0.15884
1659.19,-0.15897
1659.2,-0.15973
1659.21,-0.16019
1659.22,-0.16136
1659.23,-0.16072
1659.24,-0.15923
1659.25,-0.1591
1659.26,-0.16755
1659.27,-0.19966
1659.28,-0.27143
1659.29,-0.39361
1659.3,-0.55738
1659.31,-0.75197
1659.32,-0.96651
1659.33,-1.15189
1659.34,-1.27541
1659.35,-1.34114
1659.36,-1.33093
1659.37,-1.24346
1659.38,-1.09148
1659.39,-0.89817
1659.4,-0.69262
1659.41,-0.51049
1659.42,-0.37293
1659.43,-0.27796
1659.44,-0.22006
1659.45,-0.18761
1659.46,-0.17134
1659.47,-0.1624
1659.48,-0.1611
1659.49,-0.15972
1659.5,-0.16022
1659.51,-0.15946
1659.52,-0.15925
1659.53,-0.15983
1659.54,-0.15867
1659.55,-0.1586
1659.56,-0.15889
1659.57,-0.15837
1659.58,-0.15873
1659.59,-0.15871
1659.6,-0.15826
1659.61,-0.15913
1659.62,-0.15882
1659.63,-0.15863
1659.64,-0.15965
1659.65,-0.15842
1659.66,-0.15924
1659.67,-0.15844
1659.68,-0.15866
1659.69,-0.15871
1659.7,-0.15832
1659.71,-0.15873
1659.72,-0.15866
1659.73,-0.15837
1659.74,-0.15869
1659.75,-0.15883
1659.76,-0.15904
1659.77,-0.15848
1659.78,-0.15855
1659.79,-0.15881
1659.8,-0.15797
1659.81,-0.1598
1659.82,-0.15846
1659.83,-0.15803
1659.84,-0.15816
1659.85,-0.15904
1659.86,-0.15903
1659.87,-0.1583
1659.88,-0.15834
1659.89,-0.15888
1659.9,-0.15822
1659.91,-0.15737
1659.92,-0.15875
1659.93,-0.15848
1659.94,-0.1585
1659.95,-0.15791
1659.96,-0.15834
1659.97,-0.15898
1659.98,-0.15851
1659.99,-0.15845
1660,-0.1582
1660.01,-0.15839
1660.02,-0.15815
1660.03,-0.15897
1660.04,-0.15844
1660.05,-0.15795
1660.06,-0.15947
1660.07,-0.15833
1660.08,-0.15841
1660.09,-0.15855
1660.1,-0.15901
1660.11,-0.15838
1660.12,-0.15877
1660.13,-0.15897
1660.14,-0.15904
1660.15,-0.15871
1660.16,-0.15905
1660.17,-0.15814
1660.18,-0.15925
1660.19,-0.15855
1660.2,-0.15946
1660.21,-0.15888
1660.22,-0.15881
1660.23,-0.15771
1660.24,-0.15929
1660.25,-0.15877
1660.26,-0.15876
1660.27,-0.15884
1660.28,-0.15843
1660.29,-0.15902
1660.3,-0.15885
1660.31,-0.15907
1660.32,-0.15896
1660.33,-0.159
1660.34,-0.15927
1660.35,-0.1581
1660.36,-0.1585
1660.37,-0.15954
1660.38,-0.15905
1660.39,-0.15828
1660.4,-0.1601
1660.41,-0.15865
1660.42,-0.1589
1660.43,-0.16005
1660.44,-0.15888
1660.45,-0.15903
1660.46,-0.15913
1660.47,-0.15891
1660.48,-0.15896
1660.49,-0.15901
1660.5,-0.15869
1660.51,-0.16006
1660.52,-0.15869
1660.53,-0.15977
1660.54,-0.15811
1660.55,-0.15984
1660.56,-0.15952
1660.57,-0.1583
1660.58,-0.15884
1660.59,-0.15846
1660.6,-0.15814
1660.61,-0.15996
1660.62,-0.15948
1660.63,-0.15875
1660.64,-0.15994
1660.65,-0.1591
1660.66,-0.15877
1660.67,-0.15907
1660.68,-0.15987
1660.69,-0.15868
1660.7,-0.15851
1660.71,-0.15909
1660.72,-0.15897
1660.73,-0.15962
1660.74,-0.15907
1660.75,-0.1595
1660.76,-0.15899
1660.77,-0.15947
1660.78,-0.15927
1660.79,-0.15902
1660.8,-0.1594
1660.81,-0.15928
1660.82,-0.15931
1660.83,-0.15946
1660.84,-0.15974
1660.85,-0.15961
1660.86,-0.15904
1660.87,-0.16063
1660.88,-0.15976
1660.89,-0.1595
1660.9,-0.15958
1660.91,-0.15929
1660.92,-0.15966
1660.93,-0.15976
1660.94,-0.1591
1660.95,-0.1609
1660.96,-0.15919
1660.97,-0.15974
1660.98,-0.15984
1660.99,-0.15996
1661,-0.15998
1661.01,-0.1594
1661.02,-0.15972
1661.03,-0.15908
1661.04,-0.16046
1661.05,-0.1597
1661.06,-0.15985
1661.07,-0.16016
1661.08,-0.1598
1661.09,-0.16008
1661.1,-0.15995
1661.11,-0.15977
1661.12,-0.15972
1661.13,-0.16039
1661.14,-0.15899
1661.15,-0.16005
1661.16,-0.15942
1661.17,-0.1598
1661.18,-0.16002
1661.19,-0.16034
1661.2,-0.15971
1661.21,-0.16023
1661.22,-0.1595
1661.23,-0.16056
1661.24,-0.1596
1661.25,-0.15966
1661.26,-0.15921
1661.27,-0.15988
1661.28,-0.15942
1661.29,-0.16051
1661.3,-0.15929
1661.31,-0.15959
1661.32,-0.15951
1661.33,-0.1597
1661.34,-0.1598
1661.35,-0.15968
1661.36,-0.15923
1661.37,-0.15934
1661.38,-0.1594
1661.39,-0.15937
1661.4,-0.15962
1661.41,-0.15965
1661.42,-0.15908
1661.43,-0.15936
1661.44,-0.15935
1661.45,-0.15954
1661.46,-0.15898
1661.47,-0.15923
1661.48,-0.15875
1661.49,-0.15934
1661.5,-0.15921
1661.51,-0.15913
1661.52,-0.15926
1661.53,-0.15974
1661.54,-0.15877
1661.55,-0.16039
1661.56,-0.15907
1661.57,-0.15914
1661.58,-0.15942
1661.59,-0.15867
1661.6,-0.15922
1661.61,-0.15916
1661.62,-0.15918
1661.63,-0.16006
1661.64,-0.1589
1661.65,-0.15991
1661.66,-0.16014
1661.67,-0.15888
1661.68,-0.15879
1661.69,-0.15935
1661.7,-0.15966
1661.71,-0.15933
1661.72,-0.15977
1661.73,-0.1582
1661.74,-0.16017
1661.75,-0.15938
1661.76,-0.15994
1661.77,-0.15896
1661.78,-0.15993
1661.79,-0.15933
1661.8,-0.15931
1661.81,-0.15947
1661.82,-0.15894
1661.83,-0.15909
1661.84,-0.15967
1661.85,-0.15866
1661.86,-0.16025
1661.87,-0.15908
1661.88,-0.15981
1661.89,-0.15895
1661.9,-0.1594
1661.91,-0.15905
1661.92,-0.15917
1661.93,-0.15928
1661.94,-0.15902
1661.95,-0.15901
1661.96,-0.15962
1661.97,-0.15926
1661.98,-0.15916
1661.99,-0.15909
1662,-0.16015
1662.01,-0.1585
1662.02,-0.15929
1662.03,-0.15905
1662.04,-0.15956
1662.05,-0.15913
1662.06,-0.15937
1662.07,-0.15901
1662.08,-0.159
1662.09,-0.15928
1662.1,-0.1595
1662.11,-0.15986
1662.12,-0.16012
1662.13,-0.16091
1662.14,-0.16108
1662.15,-0.162
1662.16,-0.16055
1662.17,-0.16144
1662.18,-0.17137
1662.19,-0.19979
1662.2,-0.25921
1662.21,-0.36683
1662.22,-0.53513
1662.23,-0.72999
1662.24,-0.94397
1662.25,-1.1458
1662.26,-1.30343
1662.27,-1.39851
1662.28,-1.40263
1662.29,-1.30968
1662.3,-1.1535
1662.31,-0.95493
1662.32,-0.75555
1662.33,-0.57077
1662.34,-0.42005
1662.35,-0.31012
1662.36,-0.23554
1662.37,-0.19503
1662.38,-0.17599
1662.39,-0.16558
1662.4,-0.1628
1662.41,-0.16111
1662.42,-0.16058
1662.43,-0.16048
1662.44,-0.16045
1662.45,-0.15958
1662.46,-0.15981
1662.47,-0.15922
1662.48,-0.15946
1662.49,-0.15899
1662.5,-0.15982
1662.51,-0.15953
1662.52,-0.15915
1662.53,-0.15981
1662.54,-0.15981
1662.55,-0.15971
1662.56,-0.16023
1662.57,-0.15945
1662.58,-0.15988
1662.59,-0.15896
1662.6,-0.1595
1662.61,-0.15941
1662.62,-0.15963
1662.63,-0.15938
1662.64,-0.15972
1662.65,-0.15966
1662.66,-0.15983
1662.67,-0.15926
1662.68,-0.15966
1662.69,-0.15933
1662.7,-0.15969
1662.71,-0.15901
1662.72,-0.16011
1662.73,-0.15983
1662.74,-0.15887
1662.75,-0.16066
1662.76,-0.1599
1662.77,-0.15975
1662.78,-0.15985
1662.79,-0.15986
1662.8,-0.15941
1662.81,-0.1593
1662.82,-0.15891
1662.83,-0.16006
1662.84,-0.15954
1662.85,-0.15986
1662.86,-0.15962
1662.87,-0.15909
1662.88,-0.16058
1662.89,-0.15963
1662.9,-0.15979
1662.91,-0.15933
1662.92,-0.15968
1662.93,-0.15953
1662.94,-0.15972
1662.95,-0.15984
1662.96,-0.15958
1662.97,-0.15868
1662.98,-0.16145
1662.99,-0.15915
1663,-0.1594
1663.01,-0.16007
1663.02,-0.15978
1663.03,-0.15932
1663.04,-0.15926
1663.05,-0.15927
1663.06,-0.15961
1663.07,-0.15925
1663.08,-0.15961
1663.09,-0.15943
1663.1,-0.15959
1663.11,-0.15918
1663.12,-0.15986
1663.13,-0.15971
1663.14,-0.15901
1663.15,-0.1594
1663.16,-0.15981
1663.17,-0.15931
1663.18,-0.15971
1663.19,-0.15918
1663.2,-0.15986
1663.21,-0.1595
1663.22,-0.16009
1663.23,-0.15975
1663.24,-0.1601
1663.25,-0.15948
1663.26,-0.15943
1663.27,-0.15939
1663.28,-0.1596
1663.29,-0.1596
1663.3,-0.15944
1663.31,-0.15997
1663.32,-0.15989
1663.33,-0.16021
1663.34,-0.16014
1663.35,-0.15941
1663.36,-0.15931
1663.37,-0.16031
1663.38,-0.15938
1663.39,-0.1596
1663.4,-0.15977
1663.41,-0.15968
1663.42,-0.15955
1663.43,-0.15984
1663.44,-0.16023
1663.45,-0.15972
1663.46,-0.16039
1663.47,-0.15973
1663.48,-0.15992
1663.49,-0.15992
1663.5,-0.15972
1663.51,-0.1598
1663.52,-0.15945
1663.53,-0.15993
1663.54,-0.16018
1663.55,-0.16008
1663.56,-0.16027
1663.57,-0.16004
1663.58,-0.1599
1663.59,-0.15989
1663.6,-0.15941
1663.61,-0.16015
1663.62,-0.15938
1663.63,-0.16007
1663.64,-0.15977
1663.65,-0.15964
1663.66,-0.16013
1663.67,-0.15988
1663.68,-0.16002
1663.69,-0.15981
1663.7,-0.15943
1663.71,-0.15947
1663.72,-0.16013
1663.73,-0.16031
1663.74,-0.15953
1663.75,-0.15943
1663.76,-0.16002
1663.77,-0.16013
1663.78,-0.15973
1663.79,-0.16013
1663.8,-0.16007
1663.81,-0.15942
1663.82,-0.15988
1663.83,-0.16005
1663.84,-0.15941
1663.85,-0.15996
1663.86,-0.16034
1663.87,-0.15955
1663.88,-0.15966
1663.89,-0.16087
1663.9,-0.16002
1663.91,-0.16004
1663.92,-0.16021
1663.93,-0.16016
1663.94,-0.16002
1663.95,-0.15969
1663.96,-0.15984
1663.97,-0.16024
1663.98,-0.16038
1663.99,-0.16016
1664,-0.16009
1664.01,-0.16072
1664.02,-0.16007
1664.03,-0.16055
1664.04,-0.15978
1664.05,-0.16001
1664.06,-0.15997
1664.07,-0.16021
1664.08,-0.16022
1664.09,-0.16016
1664.1,-0.16061
1664.11,-0.16047
1664.12,-0.16045
1664.13,-0.16066
1664.14,-0.16019
1664.15,-0.15997
1664.16,-0.16031
1664.17,-0.16021
1664.18,-0.1602
1664.19,-0.15998
1664.2,-0.16066
1664.21,-0.16083
1664.22,-0.16002
1664.23,-0.16042
1664.24,-0.16113
1664.25,-0.16061
1664.26,-0.15988
1664.27,-0.16045
1664.28,-0.16037
1664.29,-0.1601
1664.3,-0.1602
1664.31,-0.16058
1664.32,-0.16056
1664.33,-0.16067
1664.34,-0.16088
1664.35,-0.16124
1664.36,-0.16036
1664.37,-0.16018
1664.38,-0.16001
1664.39,-0.16061
1664.4,-0.1604
1664.41,-0.16046
1664.42,-0.16038
1664.43,-0.16067
1664.44,-0.16092
1664.45,-0.16086
1664.46,-0.1608
1664.47,-0.16059
1664.48,-0.16014
1664.49,-0.16049
1664.5,-0.16086
1664.51,-0.16063
1664.52,-0.16034
1664.53,-0.16106
1664.54,-0.16017
1664.55,-0.16099
1664.56,-0.16125
1664.57,-0.16102
1664.58,-0.1608
1664.59,-0.16097
1664.6,-0.1607
1664.61,-0.16076
1664.62,-0.16116
1664.63,-0.16099
1664.64,-0.16117
1664.65,-0.16084
1664.66,-0.16164
1664.67,-0.16124
1664.68,-0.16116
1664.69,-0.16157
1664.7,-0.16142
1664.71,-0.1613
1664.72,-0.16115
1664.73,-0.16067
1664.74,-0.1618
1664.75,-0.16114
1664.76,-0.16148
1664.77,-0.16117
1664.78,-0.16142
1664.79,-0.16121
1664.8,-0.16113
1664.81,-0.16059
1664.82,-0.16123
1664.83,-0.16057
1664.84,-0.1608
1664.85,-0.1611
1664.86,-0.16016
1664.87,-0.16106
1664.88,-0.16056
1664.89,-0.16149
1664.9,-0.16136
1664.91,-0.1609
1664.92,-0.16137
1664.93,-0.16053
1664.94,-0.16109
1664.95,-0.16107
1664.96,-0.16091
1664.97,-0.16029
1664.98,-0.16097
1664.99,-0.16098
1665,-0.16102
1665.01,-0.16088
1665.02,-0.16069
1665.03,-0.16085
1665.04,-0.16007
1665.05,-0.16061
1665.06,-0.16062
1665.07,-0.16045
1665.08,-0.16073
1665.09,-0.16098
1665.1,-0.16059
1665.11,-0.16087
1665.12,-0.16054
1665.13,-0.1609
1665.14,-0.16055
1665.15,-0.16022
1665.16,-0.15995
1665.17,-0.16088
1665.18,-0.16023
1665.19,-0.15978
1665.2,-0.16052
1665.21,-0.16074
1665.22,-0.16077
1665.23,-0.16196
1665.24,-0.1609
1665.25,-0.16143
1665.26,-0.16038
1665.27,-0.16155
1665.28,-0.16076
1665.29,-0.16147
1665.3,-0.16108
1665.31,-0.16102
1665.32,-0.16147
1665.33,-0.16155
1665.34,-0.16168
1665.35,-0.16155
1665.36,-0.16224
1665.37,-0.16153
1665.38,-0.16085
1665.39,-0.1616
1665.4,-0.16145
1665.41,-0.16106
1665.42,-0.16076
1665.43,-0.16076
1665.44,-0.16062
1665.45,-0.16205
1665.46,-0.16109
1665.47,-0.16111
1665.48,-0.1611
1665.49,-0.16056
1665.5,-0.16128
1665.51,-0.16106
1665.52,-0.16092
1665.53,-0.16053
1665.54,-0.16116
1665.55,-0.16083
1665.56,-0.16107
1665.57,-0.1611
1665.58,-0.16145
1665.59,-0.16103
1665.6,-0.16091
1665.61,-0.16173
1665.62,-0.16113
1665.63,-0.16108
1665.64,-0.16183
1665.65,-0.16099
1665.66,-0.16132
1665.67,-0.16169
1665.68,-0.16062
1665.69,-0.16144
1665.7,-0.16107
1665.71,-0.16089
1665.72,-0.16111
1665.73,-0.16084
1665.74,-0.16106
1665.75,-0.16088
1665.76,-0.16114
1665.77,-0.161
1665.78,-0.16076
1665.79,-0.16139
1665.8,-0.16153
1665.81,-0.16065
1665.82,-0.16094
1665.83,-0.16096
1665.84,-0.16114
1665.85,-0.16119
1665.86,-0.16138
1665.87,-0.16179
1665.88,-0.16158
1665.89,-0.16148
1665.9,-0.16177
1665.91,-0.16178
1665.92,-0.1618
1665.93,-0.16165
1665.94,-0.16133
1665.95,-0.16112
1665.96,-0.1608
1665.97,-0.161
1665.98,-0.16098
1665.99,-0.16072
1666,-0.16075
1666.01,-0.16063
1666.02,-0.16095
1666.03,-0.16004
1666.04,-0.16002
1666.05,-0.16032
1666.06,-0.1599
1666.07,-0.15944
1666.08,-0.16034
1666.09,-0.15995
1666.1,-0.16022
1666.11,-0.16005
1666.12,-0.16082
1666.13,-0.16
1666.14,-0.16061
1666.15,-0.16049
1666.16,-0.16012
1666.17,-0.16019
1666.18,-0.16067
1666.19,-0.16019
1666.2,-0.16017
1666.21,-0.1606
1666.22,-0.16016
1666.23,-0.16019
1666.24,-0.16077
1666.25,-0.16043
1666.26,-0.15995
1666.27,-0.16028
1666.28,-0.16014
1666.29,-0.16012
1666.3,-0.15995
1666.31,-0.16013
1666.32,-0.16029
1666.33,-0.16049
1666.34,-0.16058
1666.35,-0.16071
1666.36,-0.16119
1666.37,-0.16103
1666.38,-0.16111
1666.39,-0.1605
1666.4,-0.16125
1666.41,-0.16109
1666.42,-0.16155
1666.43,-0.16162
1666.44,-0.16089
1666.45,-0.16117
1666.46,-0.16144
1666.47,-0.16076
1666.48,-0.16098
1666.49,-0.15984
1666.5,-0.16075
1666.51,-0.15994
1666.52,-0.1601
1666.53,-0.15995
1666.54,-0.16029
1666.55,-0.15987
1666.56,-0.1604
1666.57,-0.16057
1666.58,-0.16048
1666.59,-0.16078
1666.6,-0.16037
1666.61,-0.16051
1666.62,-0.15985
1666.63,-0.16054
1666.64,-0.16035
1666.65,-0.16107
1666.66,-0.16056
1666.67,-0.16052
1666.68,-0.16154
1666.69,-0.16106
1666.7,-0.16159
1666.71,-0.16146
1666.72,-0.16067
1666.73,-0.16062
1666.74,-0.16131
1666.75,-0.16087
1666.76,-0.16103
1666.77,-0.16099
1666.78,-0.16146
1666.79,-0.16155
1666.8,-0.16128
1666.81,-0.16149
1666.82,-0.16176
1666.83,-0.16192
1666.84,-0.16192
1666.85,-0.16163
1666.86,-0.16172
1666.87,-0.16135
1666.88,-0.16081
1666.89,-0.16101
1666.9,-0.16112
1666.91,-0.16065
1666.92,-0.1605
1666.93,-0.16025
1666.94,-0.16035
1666.95,-0.16021
1666.96,-0.15971
1666.97,-0.16006
1666.98,-0.16027
1666.99,-0.1601
1667,-0.16071
1667.01,-0.16007
1667.02,-0.16045
1667.03,-0.16025
1667.04,-0.16067
1667.05,-0.16047
1667.06,-0.16048
1667.07,-0.16094
1667.08,-0.16042
1667.09,-0.16179
1667.1,-0.16143
1667.11,-0.1616
1667.12,-0.16146
1667.13,-0.16206
1667.14,-0.16192
1667.15,-0.16172
1667.16,-0.16208
1667.17,-0.16175
1667.18,-0.16174
1667.19,-0.16163
1667.2,-0.16142
1667.21,-0.1611
1667.22,-0.16044
1667.23,-0.16123
1667.24,-0.16076
1667.25,-0.16094
1667.26,-0.15974
1667.27,-0.16055
1667.28,-0.15967
1667.29,-0.16
1667.3,-0.15997
1667.31,-0.1597
1667.32,-0.15985
1667.33,-0.16047
1667.34,-0.15979
1667.35,-0.16074
1667.36,-0.16024
1667.37,-0.15986
1667.38,-0.16016
1667.39,-0.15952
1667.4,-0.16095
1667.41,-0.15999
1667.42,-0.15993
1667.43,-0.16107
1667.44,-0.16064
1667.45,-0.16118
1667.46,-0.16174
1667.47,-0.1617
1667.48,-0.16146
1667.49,-0.16133
1667.5,-0.16134
1667.51,-0.16133
1667.52,-0.16092
1667.53,-0.16082
1667.54,-0.16034
1667.55,-0.16079
1667.56,-0.16032
1667.57,-0.15983
1667.58,-0.16017
1667.59,-0.16005
1667.6,-0.15979
1667.61,-0.15952
1667.62,-0.15956
1667.63,-0.16008
1667.64,-0.15953
1667.65,-0.16009
1667.66,-0.16009
1667.67,-0.16038
1667.68,-0.1607
1667.69,-0.16071
1667.7,-0.16142
1667.71,-0.16124
1667.72,-0.16084
1667.73,-0.16196
1667.74,-0.16128
1667.75,-0.16112
1667.76,-0.16144
1667.77,-0.16133
1667.78,-0.16144
1667.79,-0.16034
1667.8,-0.16085
1667.81,-0.16059
1667.82,-0.1602
1667.83,-0.1602
1667.84,-0.15982
1667.85,-0.15944
1667.86,-0.16124
1667.87,-0.15984
1667.88,-0.15922
1667.89,-0.15992
1667.9,-0.16
1667.91,-0.16018
1667.92,-0.1604
1667.93,-0.1603
1667.94,-0.15989
1667.95,-0.16001
1667.96,-0.16041
1667.97,-0.15999
1667.98,-0.15965
1667.99,-0.15948
1668,-0.16029
1668.01,-0.15929
1668.02,-0.16031
1668.03,-0.16009
1668.04,-0.16043
1668.05,-0.15997
1668.06,-0.15986
1668.07,-0.16012
1668.08,-0.15956
1668.09,-0.15988
1668.1,-0.15988
1668.11,-0.15939
1668.12,-0.15946
1668.13,-0.16003
1668.14,-0.15926
1668.15,-0.15924
1668.16,-0.15899
1668.17,-0.15946
1668.18,-0.15864
1668.19,-0.15904
1668.2,-0.15915
1668.21,-0.15867
1668.22,-0.15932
1668.23,-0.1595
1668.24,-0.15873
1668.25,-0.15951
1668.26,-0.15849
1668.27,-0.1593
1668.28,-0.15875
1668.29,-0.15902
1668.3,-0.15884
1668.31,-0.15925
1668.32,-0.15854
1668.33,-0.15939
1668.34,-0.1599
1668.35,-0.15991
1668.36,-0.16034
1668.37,-0.16023
1668.38,-0.16028
1668.39,-0.15999
1668.4,-0.16002
1668.41,-0.16096
1668.42,-0.16057
1668.43,-0.16135
1668.44,-0.16179
1668.45,-0.16128
1668.46,-0.1611
1668.47,-0.16109
1668.48,-0.16121
1668.49,-0.16135
1668.5,-0.16115
1668.51,-0.16097
1668.52,-0.16062
1668.53,-0.16109
1668.54,-0.15983
1668.55,-0.16061
1668.56,-0.16059
1668.57,-0.16011
1668.58,-0.16056
1668.59,-0.16069
1668.6,-0.16016
1668.61,-0.16044
1668.62,-0.15955
1668.63,-0.16035
1668.64,-0.15989
1668.65,-0.16012
1668.66,-0.15992
1668.67,-0.16031
1668.68,-0.15998
1668.69,-0.16069
1668.7,-0.16021
1668.71,-0.16077
1668.72,-0.16168
1668.73,-0.15936
1668.74,-0.16001
1668.75,-0.16088
1668.76,-0.16005
1668.77,-0.16035
1668.78,-0.16009
1668.79,-0.16105
1668.8,-0.16011
1668.81,-0.16007
1668.82,-0.16003
1668.83,-0.15998
1668.84,-0.15964
1668.85,-0.15964
1668.86,-0.15958
1668.87,-0.16032
1668.88,-0.15936
1668.89,-0.1607
1668.9,-0.16041
1668.91,-0.16002
1668.92,-0.16028
1668.93,-0.16037
1668.94,-0.16124
1668.95,-0.16058
1668.96,-0.16091
1668.97,-0.16126
1668.98,-0.16095
1668.99,-0.16194
1669,-0.16185
1669.01,-0.16222
1669.02,-0.16197
1669.03,-0.16239
1669.04,-0.16219
1669.05,-0.16219
1669.06,-0.16223
1669.07,-0.16064
1669.08,-0.16183
1669.09,-0.16104
1669.1,-0.16062
1669.11,-0.16094
1669.12,-0.16083
1669.13,-0.16011
1669.14,-0.16096
1669.15,-0.16012
1669.16,-0.16013
1669.17,-0.16015
1669.18,-0.16034
1669.19,-0.1599
1669.2,-0.16008
1669.21,-0.16007
1669.22,-0.16069
1669.23,-0.15972
1669.24,-0.16156
1669.25,-0.1606
1669.26,-0.16122
1669.27,-0.16126
1669.28,-0.16069
1669.29,-0.16111
1669.3,-0.16113
1669.31,-0.16107
1669.32,-0.16127
1669.33,-0.16167
1669.34,-0.1607
1669.35,-0.16123
1669.36,-0.16003
1669.37,-0.16108
1669.38,-0.16114
1669.39,-0.16069
1669.4,-0.16012
1669.41,-0.16002
1669.42,-0.15997
1669.43,-0.1601
1669.44,-0.16029
1669.45,-0.16061
1669.46,-0.16111
1669.47,-0.16162
1669.48,-0.16175
1669.49,-0.16218
1669.5,-0.16272
1669.51,-0.16147
1669.52,-0.16312
1669.53,-0.16236
1669.54,-0.16216
1669.55,-0.16258
1669.56,-0.16176
1669.57,-0.16161
1669.58,-0.16106
1669.59,-0.16069
1669.6,-0.16099
1669.61,-0.1593
1669.62,-0.16095
1669.63,-0.15932
1669.64,-0.15969
1669.65,-0.15886
1669.66,-0.15958
1669.67,-0.15927
1669.68,-0.15963
1669.69,-0.15935
1669.7,-0.15996
1669.71,-0.1592
1669.72,-0.15958
1669.73,-0.15928
1669.74,-0.15956
1669.75,-0.15893
1669.76,-0.16019
1669.77,-0.16005
1669.78,-0.16009
1669.79,-0.16044
1669.8,-0.1604
1669.81,-0.16123
1669.82,-0.16128
1669.83,-0.16043
1669.84,-0.16083
1669.85,-0.16032
1669.86,-0.16011
1669.87,-0.16026
1669.88,-0.16048
1669.89,-0.16078
1669.9,-0.16049
1669.91,-0.16176
1669.92,-0.16174
1669.93,-0.16269
1669.94,-0.16264
1669.95,-0.16263
1669.96,-0.16206
1669.97,-0.16174
1669.98,-0.16263
1669.99,-0.16062
1670,-0.15946
1670.01,-0.16025
1670.02,-0.15983
1670.03,-0.15966
1670.04,-0.15879
1670.05,-0.15952
1670.06,-0.15857
1670.07,-0.15921
1670.08,-0.15889
1670.09,-0.15875
1670.1,-0.15907
1670.11,-0.15912
1670.12,-0.1586
1670.13,-0.15944
1670.14,-0.15951
1670.15,-0.1596
1670.16,-0.1598
1670.17,-0.15996
1670.18,-0.16017
1670.19,-0.16046
1670.2,-0.16053
1670.21,-0.1615
1670.22,-0.16124
1670.23,-0.16183
1670.24,-0.16206
1670.25,-0.16246
1670.26,-0.16284
1670.27,-0.1628
1670.28,-0.16316
1670.29,-0.16325
1670.3,-0.16265
1670.31,-0.1626
1670.32,-0.1621
1670.33,-0.1618
1670.34,-0.1608
1670.35,-0.1607
1670.36,-0.16004
1670.37,-0.1599
1670.38,-0.15918
1670.39,-0.15904
1670.4,-0.15894
1670.41,-0.15891
1670.42,-0.15825
1670.43,-0.15887
1670.44,-0.15853
1670.45,-0.15847
1670.46,-0.1589
1670.47,-0.15898
1670.48,-0.15855
1670.49,-0.15926
1670.5,-0.15914
1670.51,-0.1591
1670.52,-0.15859
1670.53,-0.15894
1670.54,-0.15934
1670.55,-0.15983
1670.56,-0.1607
1670.57,-0.16055
1670.58,-0.16197
1670.59,-0.16152
1670.6,-0.16275
1670.61,-0.16227
1670.62,-0.16208
1670.63,-0.16125
1670.64,-0.16117
1670.65,-0.16045
1670.66,-0.16017
1670.67,-0.1591
1670.68,-0.15901
1670.69,-0.15866
1670.7,-0.15835
1670.71,-0.15834
1670.72,-0.15793
1670.73,-0.1578
1670.74,-0.15788
1670.75,-0.15773
1670.76,-0.15762
1670.77,-0.15804
1670.78,-0.15778
1670.79,-0.15848
1670.8,-0.15886
1670.81,-0.15925
1670.82,-0.1603
1670.83,-0.16007
1670.84,-0.16079
1670.85,-0.16094
1670.86,-0.1611
1670.87,-0.16105
1670.88,-0.16026
1670.89,-0.1606
1670.9,-0.16013
1670.91,-0.15956
1670.92,-0.15972
1670.93,-0.15966
1670.94,-0.1591
1670.95,-0.15852
1670.96,-0.15812
1670.97,-0.15823
1670.98,-0.15801
1670.99,-0.15803
1671,-0.15841
1671.01,-0.15786
1671.02,-0.15884
1671.03,-0.15832
1671.04,-0.15896
1671.05,-0.15924
1671.06,-0.15896
1671.07,-0.15914
1671.08,-0.15891
1671.09,-0.15863
1671.1,-0.15818
1671.11,-0.15825
1671.12,-0.15871
1671.13,-0.15909
1671.14,-0.1601
1671.15,-0.16018
1671.16,-0.15955
1671.17,-0.15947
1671.18,-0.16398
1671.19,-0.18327
1671.2,-0.23071
1671.21,-0.31322
1671.22,-0.43292
1671.23,-0.59351
1671.24,-0.7632
1671.25,-0.92624
1671.26,-1.06024
1671.27,-1.14333
1671.28,-1.16514
1671.29,-1.12296
1671.3,-1.01245
1671.31,-0.86167
1671.32,-0.68171
1671.33,-0.52459
1671.34,-0.39029
1671.35,-0.29187
1671.36,-0.23259
1671.37,-0.19502
1671.38,-0.17432
1671.39,-0.16376
1671.4,-0.15952
1671.41,-0.1575
1671.42,-0.15697
1671.43,-0.15745
1671.44,-0.15692
1671.45,-0.15708
1671.46,-0.15674
1671.47,-0.15599
1671.48,-0.15728
1671.49,-0.15675
1671.5,-0.15708
1671.51,-0.15723
1671.52,-0.15718
1671.53,-0.1574
1671.54,-0.1576
1671.55,-0.15726
1671.56,-0.15766
1671.57,-0.15796
1671.58,-0.15856
1671.59,-0.15851
1671.6,-0.15878
1671.61,-0.15863
1671.62,-0.15816
1671.63,-0.15824
1671.64,-0.15766
1671.65,-0.15691
1671.66,-0.15736
1671.67,-0.15728
1671.68,-0.15697
1671.69,-0.15651
1671.7,-0.15676
1671.71,-0.1562
1671.72,-0.15587
1671.73,-0.15682
1671.74,-0.15559
1671.75,-0.1559
1671.76,-0.15588
1671.77,-0.15613
1671.78,-0.15602
1671.79,-0.15621
1671.8,-0.15596
1671.81,-0.15621
1671.82,-0.15659
1671.83,-0.15639
1671.84,-0.15659
1671.85,-0.15674
1671.86,-0.15616
1671.87,-0.15685
1671.88,-0.15624
1671.89,-0.15703
1671.9,-0.15595
1671.91,-0.15638
1671.92,-0.15621
1671.93,-0.15675
1671.94,-0.15591
1671.95,-0.15626
1671.96,-0.15613
1671.97,-0.15603
1671.98,-0.1549
1671.99,-0.15546
1672,-0.15599
1672.01,-0.15551
1672.02,-0.15614
1672.03,-0.15577
1672.04,-0.15638
1672.05,-0.15575
1672.06,-0.15652
1672.07,-0.15641
1672.08,-0.15648
1672.09,-0.15662
1672.1,-0.15703
1672.11,-0.15784
1672.12,-0.1575
1672.13,-0.15809
1672.14,-0.15859
1672.15,-0.15865
1672.16,-0.15919
1672.17,-0.15901
1672.18,-0.15934
1672.19,-0.15834
1672.2,-0.15826
1672.21,-0.15838
1672.22,-0.15693
1672.23,-0.15769
1672.24,-0.15682
1672.25,-0.1569
1672.26,-0.15617
1672.27,-0.15663
1672.28,-0.15577
1672.29,-0.15562
1672.3,-0.15549
1672.31,-0.15555
1672.32,-0.15549
1672.33,-0.15518
1672.34,-0.1549
1672.35,-0.15573
1672.36,-0.15588
1672.37,-0.15576
1672.38,-0.15554
1672.39,-0.15613
1672.4,-0.15581
1672.41,-0.15632
1672.42,-0.15647
1672.43,-0.15642
1672.44,-0.15646
1672.45,-0.15705
1672.46,-0.15737
1672.47,-0.15657
1672.48,-0.1569
1672.49,-0.15654
1672.5,-0.15684
1672.51,-0.15608
1672.52,-0.15631
1672.53,-0.15559
1672.54,-0.15545
1672.55,-0.15586
1672.56,-0.15555
1672.57,-0.15578
1672.58,-0.15571
1672.59,-0.15636
1672.6,-0.15678
1672.61,-0.15726
1672.62,-0.15786
1672.63,-0.15841
1672.64,-0.15901
1672.65,-0.15926
1672.66,-0.16
1672.67,-0.16012
1672.68,-0.16028
1672.69,-0.15994
1672.7,-0.15992
1672.71,-0.15876
1672.72,-0.15803
1672.73,-0.15781
1672.74,-0.15678
1672.75,-0.15629
1672.76,-0.15555
1672.77,-0.15567
1672.78,-0.15479
1672.79,-0.15506
1672.8,-0.15488
1672.81,-0.15474
1672.82,-0.15505
1672.83,-0.155
1672.84,-0.15503
1672.85,-0.15511
1672.86,-0.15476
1672.87,-0.15483
1672.88,-0.15534
1672.89,-0.15525
1672.9,-0.15574
1672.91,-0.15575
1672.92,-0.15615
1672.93,-0.15663
1672.94,-0.15726
1672.95,-0.15724
1672.96,-0.15743
1672.97,-0.15689
1672.98,-0.15728
1672.99,-0.1572
1673,-0.15685
1673.01,-0.15723
1673.02,-0.15689
1673.03,-0.15726
1673.04,-0.15778
1673.05,-0.15808
1673.06,-0.15901
1673.07,-0.15992
1673.08,-0.16015
1673.09,-0.16092
1673.1,-0.1605
1673.11,-0.16074
1673.12,-0.15999
1673.13,-0.15973
1673.14,-0.15885
1673.15,-0.15799
1673.16,-0.15651
1673.17,-0.15604
1673.18,-0.15595
1673.19,-0.15518
1673.2,-0.15467
1673.21,-0.15458
1673.22,-0.15427
1673.23,-0.15448
1673.24,-0.1546
1673.25,-0.15397
1673.26,-0.15431
1673.27,-0.15454
1673.28,-0.15462
1673.29,-0.15444
1673.3,-0.15487
1673.31,-0.15504
1673.32,-0.15479
1673.33,-0.15521
1673.34,-0.15558
1673.35,-0.15621
1673.36,-0.15649
1673.37,-0.15714
1673.38,-0.15789
1673.39,-0.15906
1673.4,-0.15844
1673.41,-0.15949
1673.42,-0.1592
1673.43,-0.15963
1673.44,-0.15965
1673.45,-0.15962
1673.46,-0.1591
1673.47,-0.15876
1673.48,-0.158
1673.49,-0.15708
1673.5,-0.15579
1673.51,-0.15516
1673.52,-0.15421
1673.53,-0.15392
1673.54,-0.15309
1673.55,-0.1531
1673.56,-0.15214
1673.57,-0.15289
1673.58,-0.1526
1673.59,-0.15282
1673.6,-0.15253
1673.61,-0.15232
1673.62,-0.15319
1673.63,-0.1528
1673.64,-0.15299
1673.65,-0.15251
1673.66,-0.15283
1673.67,-0.15321
1673.68,-0.15327
1673.69,-0.15398
1673.7,-0.15399
1673.71,-0.15521
1673.72,-0.15623
1673.73,-0.15701
1673.74,-0.15781
1673.75,-0.15828
1673.76,-0.15906
1673.77,-0.15873
1673.78,-0.15838
1673.79,-0.15757
1673.8,-0.15714
1673.81,-0.15601
1673.82,-0.1551
1673.83,-0.15418
1673.84,-0.15383
1673.85,-0.15329
1673.86,-0.15308
1673.87,-0.15276
1673.88,-0.1524
1673.89,-0.15264
1673.9,-0.15236
1673.91,-0.15253
1673.92,-0.15257
1673.93,-0.15289
1673.94,-0.15306
1673.95,-0.1533
1673.96,-0.15474
1673.97,-0.15524
1673.98,-0.15559
1673.99,-0.15685
1674,-0.15704
1674.01,-0.15751
1674.02,-0.15788
1674.03,-0.15763
1674.04,-0.15759
1674.05,-0.15669
1674.06,-0.15618
1674.07,-0.15536
1674.08,-0.15454
1674.09,-0.1546
1674.1,-0.15411
1674.11,-0.15348
1674.12,-0.15371
1674.13,-0.1532
1674.14,-0.15333
1674.15,-0.15321
1674.16,-0.15325
1674.17,-0.15351
1674.18,-0.15362
1674.19,-0.15381
1674.2,-0.1548
1674.21,-0.15419
1674.22,-0.15581
1674.23,-0.15524
1674.24,-0.1561
1674.25,-0.15705
1674.26,-0.15833
1674.27,-0.15854
1674.28,-0.15716
1674.29,-0.15617
1674.3,-0.16335
1674.31,-0.19454
1674.32,-0.27385
1674.33,-0.43529
1674.34,-0.68072
1674.35,-0.99149
1674.36,-1.3486
1674.37,-1.69705
1674.38,-1.96337
1674.39,-2.15019
1674.4,-2.21317
1674.41,-2.15326
1674.42,-1.98036
1674.43,-1.72017
1674.44,-1.40122
1674.45,-1.07371
1674.46,-0.77004
1674.47,-0.52903
1674.48,-0.36741
1674.49,-0.26362
1674.5,-0.20393
1674.51,-0.17337
1674.52,-0.16169
1674.53,-0.15625
1674.54,-0.1539
1674.55,-0.15356
1674.56,-0.15276
1674.57,-0.15278
1674.58,-0.15188
1674.59,-0.1524
1674.6,-0.15167
1674.61,-0.15131
1674.62,-0.15201
1674.63,-0.15206
1674.64,-0.15142
1674.65,-0.15164
1674.66,-0.15197
1674.67,-0.15185
1674.68,-0.15287
1674.69,-0.15251
1674.7,-0.1527
1674.71,-0.15357
1674.72,-0.15413
1674.73,-0.15243
1674.74,-0.15313
1674.75,-0.15435
1674.76,-0.15354
1674.77,-0.15394
1674.78,-0.15325
1674.79,-0.15333
1674.8,-0.15256
1674.81,-0.15289
1674.82,-0.15282
1674.83,-0.15232
1674.84,-0.15241
1674.85,-0.15234
1674.86,-0.15162
1674.87,-0.15159
1674.88,-0.15158
1674.89,-0.15145
1674.9,-0.15172
1674.91,-0.15091
1674.92,-0.15174
1674.93,-0.15117
1674.94,-0.1513
1674.95,-0.15159
1674.96,-0.15126
1674.97,-0.15177
1674.98,-0.15144
1674.99,-0.15211
1675,-0.152
1675.01,-0.15194
1675.02,-0.15151
1675.03,-0.1518
1675.04,-0.15173
1675.05,-0.15244
1675.06,-0.15224
1675.07,-0.15181
1675.08,-0.15249
1675.09,-0.15162
1675.1,-0.15111
1675.11,-0.1515
1675.12,-0.15109
1675.13,-0.15045
1675.14,-0.15109
1675.15,-0.15032
1675.16,-0.15089
1675.17,-0.15093
1675.18,-0.15013
1675.19,-0.15069
1675.2,-0.1507
1675.21,-0.15078
1675.22,-0.15099
1675.23,-0.15032
1675.24,-0.1513
1675.25,-0.15141
1675.26,-0.15099
1675.27,-0.15222
1675.28,-0.15219
1675.29,-0.15308
1675.3,-0.1529
1675.31,-0.15362
1675.32,-0.1535
1675.33,-0.1539
1675.34,-0.15382
1675.35,-0.15291
1675.36,-0.15297
1675.37,-0.15326
1675.38,-0.15203
1675.39,-0.15233
1675.4,-0.15168
1675.41,-0.1514
1675.42,-0.15057
1675.43,-0.14991
1675.44,-0.15007
1675.45,-0.14958
1675.46,-0.14936
1675.47,-0.14951
1675.48,-0.14961
1675.49,-0.14928
1675.5,-0.14932
1675.51,-0.14926
1675.52,-0.14923
1675.53,-0.14942
1675.54,-0.14967
1675.55,-0.14963
1675.56,-0.1497
1675.57,-0.14979
1675.58,-0.15047
1675.59,-0.15054
1675.6,-0.15066
1675.61,-0.15096
1675.62,-0.15063
1675.63,-0.15096
1675.64,-0.15054
1675.65,-0.15064
1675.66,-0.15009
1675.67,-0.15037
1675.68,-0.15013
1675.69,-0.14984
1675.7,-0.14977
1675.71,-0.14945
1675.72,-0.15035
1675.73,-0.14984
1675.74,-0.15009
1675.75,-0.15091
1675.76,-0.15084
1675.77,-0.15167
1675.78,-0.1522
1675.79,-0.15242
1675.8,-0.15315
1675.81,-0.15397
1675.82,-0.15491
1675.83,-0.15505
1675.84,-0.15532
1675.85,-0.15432
1675.86,-0.15415
1675.87,-0.15359
1675.88,-0.15228
1675.89,-0.15159
1675.9,-0.15048
1675.91,-0.15019
1675.92,-0.14981
1675.93,-0.14944
1675.94,-0.14869
1675.95,-0.1486
1675.96,-0.14827
1675.97,-0.14797
1675.98,-0.14854
1675.99,-0.14785
1676,-0.14771
1676.01,-0.14803
1676.02,-0.14799
1676.03,-0.14818
1676.04,-0.14786
1676.05,-0.14811
1676.06,-0.14829
1676.07,-0.14871
1676.08,-0.14963
1676.09,-0.14959
1676.1,-0.14996
1676.11,-0.14999
1676.12,-0.15023
1676.13,-0.15054
1676.14,-0.15018
1676.15,-0.15015
1676.16,-0.14962
1676.17,-0.15022
1676.18,-0.14998
1676.19,-0.15002
1676.2,-0.15074
1676.21,-0.15074
1676.22,-0.15184
1676.23,-0.15195
1676.24,-0.15318
1676.25,-0.1544
1676.26,-0.15456
1676.27,-0.15423
1676.28,-0.15383
1676.29,-0.15347
1676.3,-0.15234
1676.31,-0.15153
1676.32,-0.15055
1676.33,-0.15002
1676.34,-0.14844
1676.35,-0.14871
1676.36,-0.14783
1676.37,-0.14798
1676.38,-0.14699
1676.39,-0.14699
1676.4,-0.14735
1676.41,-0.14751
1676.42,-0.14692
1676.43,-0.14799
1676.44,-0.14773
1676.45,-0.14721
1676.46,-0.14807
1676.47,-0.14798
1676.48,-0.14817
1676.49,-0.14865
1676.5,-0.14982
1676.51,-0.15037
1676.52,-0.1509
1676.53,-0.15142
1676.54,-0.15243
1676.55,-0.15305
1676.56,-0.15359
1676.57,-0.15404
1676.58,-0.15469
1676.59,-0.15554
1676.6,-0.1553
1676.61,-0.15543
1676.62,-0.15533
1676.63,-0.15496
1676.64,-0.15392
1676.65,-0.15342
1676.66,-0.15137
1676.67,-0.15044
1676.68,-0.14912
1676.69,-0.14871
1676.7,-0.14749
1676.71,-0.14757
1676.72,-0.14721
1676.73,-0.14664
1676.74,-0.14667
1676.75,-0.1465
1676.76,-0.14612
1676.77,-0.14667
1676.78,-0.1465
1676.79,-0.14623
1676.8,-0.14632
1676.81,-0.14645
1676.82,-0.1465
1676.83,-0.1462
1676.84,-0.14662
1676.85,-0.1469
1676.86,-0.14752
1676.87,-0.14805
1676.88,-0.14871
1676.89,-0.14962
1676.9,-0.15054
1676.91,-0.15125
1676.92,-0.15232
1676.93,-0.15261
1676.94,-0.1525
1676.95,-0.15216
1676.96,-0.15115
1676.97,-0.15052
1676.98,-0.14943
1676.99,-0.1481
1677,-0.14762
1677.01,-0.14625
1677.02,-0.14592
1677.03,-0.14514
1677.04,-0.14555
1677.05,-0.14455
1677.06,-0.14486
1677.07,-0.14515
1677.08,-0.14484
1677.09,-0.14477
1677.1,-0.14449
1677.11,-0.14514
1677.12,-0.14519
1677.13,-0.14593
1677.14,-0.14694
1677.15,-0.14764
1677.16,-0.14858
1677.17,-0.14953
1677.18,-0.15016
1677.19,-0.15047
1677.2,-0.15023
1677.21,-0.14908
1677.22,-0.15029
1677.23,-0.14755
1677.24,-0.14729
1677.25,-0.14645
1677.26,-0.14682
1677.27,-0.14644
1677.28,-0.14624
1677.29,-0.14642
1677.3,-0.14677
1677.31,-0.14651
1677.32,-0.14698
1677.33,-0.14631
1677.34,-0.14667
1677.35,-0.14689
1677.36,-0.14746
1677.37,-0.14761
1677.38,-0.14852
1677.39,-0.14875
1677.4,-0.14905
1677.41,-0.15068
1677.42,-0.15147
1677.43,-0.15075
1677.44,-0.14788
1677.45,-0.15153
1677.46,-0.18223
1677.47,-0.29114
1677.48,-0.51041
1677.49,-0.8229
1677.5,-1.25571
1677.51,-1.73841
1677.52,-2.23405
1677.53,-2.65365
1677.54,-2.97885
1677.55,-3.17128
1677.56,-3.19425
1677.57,-3.04778
1677.58,-2.74434
1677.59,-2.35304
1677.6,-1.87631
1677.61,-1.40153
1677.62,-0.99657
1677.63,-0.67417
1677.64,-0.44607
1677.65,-0.29249
1677.66,-0.21344
1677.67,-0.17481
1677.68,-0.15802
1677.69,-0.15102
1677.7,-0.14845
1677.71,-0.14778
1677.72,-0.14646
1677.73,-0.14587
1677.74,-0.14571
1677.75,-0.14514
1677.76,-0.14462
1677.77,-0.14528
1677.78,-0.14476
1677.79,-0.14474
1677.8,-0.14469
1677.81,-0.14507
1677.82,-0.14482
1677.83,-0.14509
1677.84,-0.14507
1677.85,-0.14498
1677.86,-0.14543
1677.87,-0.14566
1677.88,-0.1454
1677.89,-0.14599
1677.9,-0.14619
1677.91,-0.14643
1677.92,-0.14693
1677.93,-0.14712
1677.94,-0.14834
1677.95,-0.14815
1677.96,-0.14817
1677.97,-0.14816
1677.98,-0.14858
1677.99,-0.14824
1678,-0.1477
1678.01,-0.14738
1678.02,-0.1465
1678.03,-0.1461
1678.04,-0.14612
1678.05,-0.14542
1678.06,-0.14562
1678.07,-0.14476
1678.08,-0.14504
1678.09,-0.14456
1678.1,-0.14448
1678.11,-0.14456
1678.12,-0.14414
1678.13,-0.14392
1678.14,-0.14393
1678.15,-0.14392
1678.16,-0.14442
1678.17,-0.14393
1678.18,-0.14404
1678.19,-0.14388
1678.2,-0.1445
1678.21,-0.14425
1678.22,-0.14437
1678.23,-0.14457
1678.24,-0.14477
1678.25,-0.14489
1678.26,-0.14476
1678.27,-0.14476
1678.28,-0.14425
1678.29,-0.1447
1678.3,-0.14408
1678.31,-0.14449
1678.32,-0.14361
1678.33,-0.14364
1678.34,-0.14359
1678.35,-0.14332
1678.36,-0.14351
1678.37,-0.14316
1678.38,-0.14261
1678.39,-0.14322
1678.4,-0.14311
1678.41,-0.14311
1678.42,-0.14273
1678.43,-0.14311
1678.44,-0.14339
1678.45,-0.14355
1678.46,-0.14362
1678.47,-0.14408
1678.48,-0.14468
1678.49,-0.1452
1678.5,-0.14602
1678.51,-0.14625
1678.52,-0.14746
1678.53,-0.14846
1678.54,-0.14821
1678.55,-0.14887
1678.56,-0.14847
1678.57,-0.14881
1678.58,-0.14834
1678.59,-0.14765
1678.6,-0.14687
1678.61,-0.14656
1678.62,-0.14563
1678.63,-0.145
1678.64,-0.14466
1678.65,-0.14411
1678.66,-0.14388
1678.67,-0.14359
1678.68,-0.14316
1678.69,-0.14352
1678.7,-0.14277
1678.71,-0.14352
1678.72,-0.14279
1678.73,-0.14288
1678.74,-0.14323
1678.75,-0.14312
1678.76,-0.14345
1678.77,-0.14369
1678.78,-0.14401
1678.79,-0.14403
1678.8,-0.14461
1678.81,-0.14504
1678.82,-0.14543
1678.83,-0.14586
1678.84,-0.14604
1678.85,-0.14546
1678.86,-0.14538
1678.87,-0.14515
1678.88,-0.14563
1678.89,-0.14467
1678.9,-0.14472
1678.91,-0.14405
1678.92,-0.14408
1678.93,-0.14364
1678.94,-0.14389
1678.95,-0.144
1678.96,-0.14416
1678.97,-0.14446
1678.98,-0.14525
1678.99,-0.14616
1679,-0.14734
1679.01,-0.14841
1679.02,-0.14956
1679.03,-0.15073
1679.04,-0.15202
1679.05,-0.15232
1679.06,-0.15305
1679.07,-0.15223
1679.08,-0.1521
1679.09,-0.15076
1679.1,-0.14897
1679.11,-0.14819
1679.12,-0.14649
1679.13,-0.14529
1679.14,-0.14462
1679.15,-0.14409
1679.16,-0.14275
1679.17,-0.14289
1679.18,-0.14205
1679.19,-0.14212
1679.2,-0.14158
1679.21,-0.14164
1679.22,-0.14164
1679.23,-0.14121
1679.24,-0.14134
1679.25,-0.14105
1679.26,-0.14147
1679.27,-0.14121
1679.28,-0.14228
1679.29,-0.14228
1679.3,-0.14267
1679.31,-0.14348
1679.32,-0.14414
1679.33,-0.14386
1679.34,-0.14488
1679.35,-0.1453
1679.36,-0.14544
1679.37,-0.14567
1679.38,-0.14579
1679.39,-0.14485
1679.4,-0.14505
1679.41,-0.14562
1679.42,-0.14561
1679.43,-0.14704
1679.44,-0.14787
1679.45,-0.14868
1679.46,-0.15018
1679.47,-0.15221
1679.48,-0.15083
1679.49,-0.153
1679.5,-0.15293
1679.51,-0.15174
1679.52,-0.15082
1679.53,-0.14953
1679.54,-0.14763
1679.55,-0.14663
1679.56,-0.14495
1679.57,-0.1437
1679.58,-0.14321
1679.59,-0.1424
1679.6,-0.14191
1679.61,-0.14166
1679.62,-0.14135
1679.63,-0.14073
1679.64,-0.14121
1679.65,-0.14122
1679.66,-0.14095
1679.67,-0.14136
1679.68,-0.1411
1679.69,-0.14119
1679.7,-0.14163
1679.71,-0.14187
1679.72,-0.14274
1679.73,-0.14328
1679.74,-0.14416
1679.75,-0.14538
1679.76,-0.14615
1679.77,-0.14716
1679.78,-0.14882
1679.79,-0.14894
1679.8,-0.15074
1679.81,-0.1518
1679.82,-0.15253
1679.83,-0.15314
1679.84,-0.15333
1679.85,-0.15314
1679.86,-0.15293
1679.87,-0.15158
1679.88,-0.14994
1679.89,-0.1478
1679.9,-0.14638
1679.91,-0.14468
1679.92,-0.14312
1679.93,-0.14239
1679.94,-0.14085
1679.95,-0.14065
1679.96,-0.14004
1679.97,-0.1399
1679.98,-0.13948
1679.99,-0.13959
1680,-0.13933
