3/04/2024,2:17:33 PM
Software,STS IL/PDL,IL,Normal,1.3.3.0
TSL,SANTEC,TSL-570,23020004,0022.0017.0009
PowerMeter,SANTEC,MPM-210H,23020023,Ver.1.19
,Module0,MPM-211,23020025M211,Ver.1.22
Power Monitor,DAQ
Start,1600,nm
Stop,1680,nm
Step,0.01,nm
Speed,20,nm/s
Source Power,10,dBm
Averaging Time,0.5,msec
Power meter range,23020025M211,(Ch1),-30～+10dBm,-40～ 0dBm
--HEADER END--
--DATA START--
Wavelength(nm),IL_M1_S0_CH1
1600,-0.12357
1600.01,-0.12424
1600.02,-0.12391
1600.03,-0.12481
1600.04,-0.12366
1600.05,-0.12367
1600.06,-0.12384
1600.07,-0.12334
1600.08,-0.1237
1600.09,-0.12367
1600.1,-0.12379
1600.11,-0.12409
1600.12,-0.1237
1600.13,-0.12373
1600.14,-0.12431
1600.15,-0.12407
1600.16,-0.12358
1600.17,-0.12398
1600.18,-0.12373
1600.19,-0.12415
1600.2,-0.12386
1600.21,-0.12402
1600.22,-0.12273
1600.23,-0.12521
1600.24,-0.12411
1600.25,-0.12516
1600.26,-0.12393
1600.27,-0.12423
1600.28,-0.12438
1600.29,-0.12473
1600.3,-0.12403
1600.31,-0.12445
1600.32,-0.12473
1600.33,-0.12465
1600.34,-0.12485
1600.35,-0.12513
1600.36,-0.12501
1600.37,-0.12499
1600.38,-0.12453
1600.39,-0.12483
1600.4,-0.12448
1600.41,-0.12511
1600.42,-0.12457
1600.43,-0.12582
1600.44,-0.12534
1600.45,-0.12516
1600.46,-0.12538
1600.47,-0.1256
1600.48,-0.1253
1600.49,-0.12546
1600.5,-0.12532
1600.51,-0.1259
1600.52,-0.1253
1600.53,-0.12578
1600.54,-0.12506
1600.55,-0.12599
1600.56,-0.12583
1600.57,-0.12583
1600.58,-0.12622
1600.59,-0.12641
1600.6,-0.1264
1600.61,-0.12536
1600.62,-0.12621
1600.63,-0.12567
1600.64,-0.12594
1600.65,-0.12562
1600.66,-0.12579
1600.67,-0.12581
1600.68,-0.12656
1600.69,-0.12678
1600.7,-0.12564
1600.71,-0.12646
1600.72,-0.12577
1600.73,-0.12629
1600.74,-0.12562
1600.75,-0.12588
1600.76,-0.12544
1600.77,-0.126
1600.78,-0.12568
1600.79,-0.12645
1600.8,-0.12586
1600.81,-0.12611
1600.82,-0.12596
1600.83,-0.12559
1600.84,-0.12552
1600.85,-0.12561
1600.86,-0.12545
1600.87,-0.12528
1600.88,-0.12559
1600.89,-0.12537
1600.9,-0.126
1600.91,-0.12625
1600.92,-0.12562
1600.93,-0.12575
1600.94,-0.12512
1600.95,-0.12565
1600.96,-0.12515
1600.97,-0.12511
1600.98,-0.12535
1600.99,-0.12492
1601,-0.12528
1601.01,-0.12547
1601.02,-0.12477
1601.03,-0.12548
1601.04,-0.12548
1601.05,-0.12514
1601.06,-0.12469
1601.07,-0.12456
1601.08,-0.12451
1601.09,-0.12463
1601.1,-0.12479
1601.11,-0.12487
1601.12,-0.12443
1601.13,-0.12482
1601.14,-0.12469
1601.15,-0.12472
1601.16,-0.12459
1601.17,-0.1246
1601.18,-0.12421
1601.19,-0.12441
1601.2,-0.12463
1601.21,-0.12468
1601.22,-0.12401
1601.23,-0.12462
1601.24,-0.1255
1601.25,-0.1242
1601.26,-0.12426
1601.27,-0.12484
1601.28,-0.1243
1601.29,-0.124
1601.3,-0.12431
1601.31,-0.1242
1601.32,-0.12436
1601.33,-0.12469
1601.34,-0.1248
1601.35,-0.12414
1601.36,-0.12468
1601.37,-0.12482
1601.38,-0.12445
1601.39,-0.12449
1601.4,-0.12413
1601.41,-0.12442
1601.42,-0.12442
1601.43,-0.12448
1601.44,-0.12463
1601.45,-0.12444
1601.46,-0.12586
1601.47,-0.12407
1601.48,-0.12588
1601.49,-0.12541
1601.5,-0.12484
1601.51,-0.12469
1601.52,-0.12507
1601.53,-0.12507
1601.54,-0.12505
1601.55,-0.12481
1601.56,-0.12501
1601.57,-0.12625
1601.58,-0.12535
1601.59,-0.12538
1601.6,-0.1257
1601.61,-0.12578
1601.62,-0.12531
1601.63,-0.12581
1601.64,-0.12564
1601.65,-0.12588
1601.66,-0.12595
1601.67,-0.12543
1601.68,-0.12597
1601.69,-0.12581
1601.7,-0.12628
1601.71,-0.12625
1601.72,-0.12681
1601.73,-0.12627
1601.74,-0.12623
1601.75,-0.12616
1601.76,-0.12645
1601.77,-0.12638
1601.78,-0.12697
1601.79,-0.12641
1601.8,-0.12712
1601.81,-0.12711
1601.82,-0.12696
1601.83,-0.1267
1601.84,-0.12707
1601.85,-0.12715
1601.86,-0.12665
1601.87,-0.12696
1601.88,-0.1271
1601.89,-0.12708
1601.9,-0.12701
1601.91,-0.12767
1601.92,-0.12732
1601.93,-0.12774
1601.94,-0.12755
1601.95,-0.12765
1601.96,-0.12677
1601.97,-0.12672
1601.98,-0.12704
1601.99,-0.12698
1602,-0.12714
1602.01,-0.12722
1602.02,-0.12729
1602.03,-0.1277
1602.04,-0.1276
1602.05,-0.12704
1602.06,-0.12759
1602.07,-0.12718
1602.08,-0.12686
1602.09,-0.12725
1602.1,-0.12748
1602.11,-0.12692
1602.12,-0.12702
1602.13,-0.12709
1602.14,-0.12714
1602.15,-0.12698
1602.16,-0.12755
1602.17,-0.12699
1602.18,-0.12666
1602.19,-0.12655
1602.2,-0.12697
1602.21,-0.12685
1602.22,-0.12682
1602.23,-0.12648
1602.24,-0.1265
1602.25,-0.12724
1602.26,-0.12647
1602.27,-0.12634
1602.28,-0.12691
1602.29,-0.12629
1602.3,-0.126
1602.31,-0.12647
1602.32,-0.12611
1602.33,-0.12591
1602.34,-0.12638
1602.35,-0.12609
1602.36,-0.12575
1602.37,-0.12653
1602.38,-0.12616
1602.39,-0.12638
1602.4,-0.12562
1602.41,-0.12537
1602.42,-0.12582
1602.43,-0.12533
1602.44,-0.12583
1602.45,-0.12561
1602.46,-0.1254
1602.47,-0.12639
1602.48,-0.12557
1602.49,-0.12582
1602.5,-0.12492
1602.51,-0.12515
1602.52,-0.12528
1602.53,-0.12492
1602.54,-0.12517
1602.55,-0.12505
1602.56,-0.12519
1602.57,-0.12576
1602.58,-0.12541
1602.59,-0.12583
1602.6,-0.12555
1602.61,-0.12515
1602.62,-0.12537
1602.63,-0.12537
1602.64,-0.12497
1602.65,-0.12499
1602.66,-0.12503
1602.67,-0.12506
1602.68,-0.12504
1602.69,-0.12576
1602.7,-0.12556
1602.71,-0.12572
1602.72,-0.12542
1602.73,-0.12553
1602.74,-0.12544
1602.75,-0.12513
1602.76,-0.12557
1602.77,-0.1256
1602.78,-0.12544
1602.79,-0.12522
1602.8,-0.12569
1602.81,-0.12518
1602.82,-0.12618
1602.83,-0.1259
1602.84,-0.12532
1602.85,-0.12566
1602.86,-0.12565
1602.87,-0.12558
1602.88,-0.12565
1602.89,-0.12619
1602.9,-0.12597
1602.91,-0.12609
1602.92,-0.1263
1602.93,-0.12642
1602.94,-0.12618
1602.95,-0.12649
1602.96,-0.12602
1602.97,-0.12639
1602.98,-0.12644
1602.99,-0.12629
1603,-0.12583
1603.01,-0.12616
1603.02,-0.12613
1603.03,-0.12707
1603.04,-0.12692
1603.05,-0.12676
1603.06,-0.12676
1603.07,-0.12677
1603.08,-0.12619
1603.09,-0.12639
1603.1,-0.12712
1603.11,-0.12654
1603.12,-0.12621
1603.13,-0.12719
1603.14,-0.12705
1603.15,-0.12727
1603.16,-0.127
1603.17,-0.12678
1603.18,-0.12696
1603.19,-0.12672
1603.2,-0.12654
1603.21,-0.12695
1603.22,-0.12685
1603.23,-0.12717
1603.24,-0.12664
1603.25,-0.12727
1603.26,-0.12724
1603.27,-0.12698
1603.28,-0.12731
1603.29,-0.12688
1603.3,-0.12708
1603.31,-0.12635
1603.32,-0.12695
1603.33,-0.12698
1603.34,-0.12732
1603.35,-0.12684
1603.36,-0.12741
1603.37,-0.12706
1603.38,-0.12708
1603.39,-0.12743
1603.4,-0.12674
1603.41,-0.12711
1603.42,-0.12663
1603.43,-0.12659
1603.44,-0.12729
1603.45,-0.12766
1603.46,-0.12587
1603.47,-0.12707
1603.48,-0.12694
1603.49,-0.12745
1603.5,-0.12689
1603.51,-0.12677
1603.52,-0.12645
1603.53,-0.12679
1603.54,-0.12652
1603.55,-0.1262
1603.56,-0.12661
1603.57,-0.12661
1603.58,-0.12659
1603.59,-0.12696
1603.6,-0.12669
1603.61,-0.12653
1603.62,-0.12639
1603.63,-0.12625
1603.64,-0.12588
1603.65,-0.12622
1603.66,-0.12633
1603.67,-0.12642
1603.68,-0.12534
1603.69,-0.12652
1603.7,-0.12636
1603.71,-0.12651
1603.72,-0.12642
1603.73,-0.12525
1603.74,-0.12627
1603.75,-0.12536
1603.76,-0.12609
1603.77,-0.12512
1603.78,-0.12604
1603.79,-0.12576
1603.8,-0.12611
1603.81,-0.12574
1603.82,-0.12602
1603.83,-0.12574
1603.84,-0.12593
1603.85,-0.1255
1603.86,-0.1254
1603.87,-0.12521
1603.88,-0.12572
1603.89,-0.1258
1603.9,-0.12559
1603.91,-0.12611
1603.92,-0.12537
1603.93,-0.12584
1603.94,-0.12579
1603.95,-0.126
1603.96,-0.12613
1603.97,-0.1254
1603.98,-0.12582
1603.99,-0.12547
1604,-0.12576
1604.01,-0.1254
1604.02,-0.12604
1604.03,-0.12589
1604.04,-0.12631
1604.05,-0.12584
1604.06,-0.12567
1604.07,-0.12604
1604.08,-0.12619
1604.09,-0.12569
1604.1,-0.126
1604.11,-0.12591
1604.12,-0.12602
1604.13,-0.12631
1604.14,-0.12656
1604.15,-0.12631
1604.16,-0.12624
1604.17,-0.1262
1604.18,-0.12613
1604.19,-0.12578
1604.2,-0.12593
1604.21,-0.12587
1604.22,-0.12593
1604.23,-0.12557
1604.24,-0.12642
1604.25,-0.12667
1604.26,-0.12588
1604.27,-0.12668
1604.28,-0.1265
1604.29,-0.12683
1604.3,-0.12597
1604.31,-0.12662
1604.32,-0.12649
1604.33,-0.12676
1604.34,-0.12644
1604.35,-0.12636
1604.36,-0.1269
1604.37,-0.12684
1604.38,-0.12695
1604.39,-0.12698
1604.4,-0.12645
1604.41,-0.12653
1604.42,-0.12647
1604.43,-0.12651
1604.44,-0.12623
1604.45,-0.12635
1604.46,-0.1269
1604.47,-0.12655
1604.48,-0.12623
1604.49,-0.12688
1604.5,-0.12685
1604.51,-0.12692
1604.52,-0.12697
1604.53,-0.12682
1604.54,-0.12661
1604.55,-0.12658
1604.56,-0.12667
1604.57,-0.1266
1604.58,-0.12692
1604.59,-0.12668
1604.6,-0.12714
1604.61,-0.1266
1604.62,-0.12664
1604.63,-0.12574
1604.64,-0.12698
1604.65,-0.12604
1604.66,-0.12624
1604.67,-0.12686
1604.68,-0.12661
1604.69,-0.12669
1604.7,-0.12712
1604.71,-0.12777
1604.72,-0.12691
1604.73,-0.12743
1604.74,-0.12665
1604.75,-0.12675
1604.76,-0.12674
1604.77,-0.12679
1604.78,-0.12649
1604.79,-0.12692
1604.8,-0.12664
1604.81,-0.12715
1604.82,-0.12694
1604.83,-0.12737
1604.84,-0.12731
1604.85,-0.12757
1604.86,-0.12663
1604.87,-0.1274
1604.88,-0.12699
1604.89,-0.12738
1604.9,-0.12693
1604.91,-0.12695
1604.92,-0.12733
1604.93,-0.12717
1604.94,-0.12815
1604.95,-0.12748
1604.96,-0.12789
1604.97,-0.12713
1604.98,-0.12712
1604.99,-0.12735
1605,-0.12761
1605.01,-0.12739
1605.02,-0.12768
1605.03,-0.12764
1605.04,-0.12774
1605.05,-0.12785
1605.06,-0.12818
1605.07,-0.12828
1605.08,-0.12731
1605.09,-0.12721
1605.1,-0.12746
1605.11,-0.12742
1605.12,-0.12742
1605.13,-0.12763
1605.14,-0.12794
1605.15,-0.12769
1605.16,-0.12784
1605.17,-0.12768
1605.18,-0.12777
1605.19,-0.12778
1605.2,-0.12758
1605.21,-0.12696
1605.22,-0.12838
1605.23,-0.12649
1605.24,-0.12806
1605.25,-0.12739
1605.26,-0.12757
1605.27,-0.12795
1605.28,-0.12771
1605.29,-0.12752
1605.3,-0.12782
1605.31,-0.12744
1605.32,-0.12681
1605.33,-0.12677
1605.34,-0.12729
1605.35,-0.12726
1605.36,-0.12748
1605.37,-0.12692
1605.38,-0.12764
1605.39,-0.12772
1605.4,-0.12723
1605.41,-0.1274
1605.42,-0.12637
1605.43,-0.12708
1605.44,-0.12621
1605.45,-0.12648
1605.46,-0.1267
1605.47,-0.12799
1605.48,-0.12645
1605.49,-0.12688
1605.5,-0.12713
1605.51,-0.12712
1605.52,-0.12704
1605.53,-0.1269
1605.54,-0.12674
1605.55,-0.12658
1605.56,-0.12643
1605.57,-0.12658
1605.58,-0.12685
1605.59,-0.1267
1605.6,-0.12688
1605.61,-0.12724
1605.62,-0.12716
1605.63,-0.12675
1605.64,-0.12644
1605.65,-0.12624
1605.66,-0.12672
1605.67,-0.12563
1605.68,-0.12663
1605.69,-0.12616
1605.7,-0.12669
1605.71,-0.12664
1605.72,-0.12678
1605.73,-0.12697
1605.74,-0.12734
1605.75,-0.12682
1605.76,-0.12658
1605.77,-0.12603
1605.78,-0.12665
1605.79,-0.12636
1605.8,-0.12657
1605.81,-0.12691
1605.82,-0.12697
1605.83,-0.12721
1605.84,-0.12695
1605.85,-0.12687
1605.86,-0.12716
1605.87,-0.1269
1605.88,-0.1267
1605.89,-0.12675
1605.9,-0.12699
1605.91,-0.12663
1605.92,-0.12665
1605.93,-0.12736
1605.94,-0.12726
1605.95,-0.12797
1605.96,-0.12754
1605.97,-0.12763
1605.98,-0.12697
1605.99,-0.12693
1606,-0.1282
1606.01,-0.12771
1606.02,-0.12801
1606.03,-0.12779
1606.04,-0.1282
1606.05,-0.12823
1606.06,-0.12837
1606.07,-0.1283
1606.08,-0.1286
1606.09,-0.12831
1606.1,-0.12825
1606.11,-0.12807
1606.12,-0.12827
1606.13,-0.12852
1606.14,-0.12851
1606.15,-0.12895
1606.16,-0.12914
1606.17,-0.12949
1606.18,-0.12881
1606.19,-0.12913
1606.2,-0.12956
1606.21,-0.12848
1606.22,-0.12921
1606.23,-0.12895
1606.24,-0.12947
1606.25,-0.12908
1606.26,-0.12965
1606.27,-0.13012
1606.28,-0.1295
1606.29,-0.13041
1606.3,-0.12989
1606.31,-0.12922
1606.32,-0.12975
1606.33,-0.12965
1606.34,-0.12996
1606.35,-0.12954
1606.36,-0.12982
1606.37,-0.1299
1606.38,-0.13023
1606.39,-0.13039
1606.4,-0.13015
1606.41,-0.12993
1606.42,-0.12941
1606.43,-0.12929
1606.44,-0.12953
1606.45,-0.1296
1606.46,-0.12984
1606.47,-0.12936
1606.48,-0.1298
1606.49,-0.12993
1606.5,-0.12996
1606.51,-0.12989
1606.52,-0.13003
1606.53,-0.12951
1606.54,-0.12977
1606.55,-0.12934
1606.56,-0.12938
1606.57,-0.12992
1606.58,-0.12985
1606.59,-0.12951
1606.6,-0.12942
1606.61,-0.12932
1606.62,-0.12925
1606.63,-0.12914
1606.64,-0.12884
1606.65,-0.12888
1606.66,-0.1289
1606.67,-0.12836
1606.68,-0.12871
1606.69,-0.12891
1606.7,-0.1289
1606.71,-0.1283
1606.72,-0.1289
1606.73,-0.12888
1606.74,-0.12887
1606.75,-0.12857
1606.76,-0.1283
1606.77,-0.12811
1606.78,-0.12796
1606.79,-0.12812
1606.8,-0.12771
1606.81,-0.12835
1606.82,-0.12813
1606.83,-0.12826
1606.84,-0.12791
1606.85,-0.12799
1606.86,-0.12771
1606.87,-0.12755
1606.88,-0.12697
1606.89,-0.12702
1606.9,-0.12743
1606.91,-0.12757
1606.92,-0.12745
1606.93,-0.127
1606.94,-0.12776
1606.95,-0.12767
1606.96,-0.1276
1606.97,-0.12757
1606.98,-0.12695
1606.99,-0.12697
1607,-0.12659
1607.01,-0.1266
1607.02,-0.12713
1607.03,-0.12691
1607.04,-0.12712
1607.05,-0.12718
1607.06,-0.12679
1607.07,-0.12753
1607.08,-0.12678
1607.09,-0.1275
1607.1,-0.12696
1607.11,-0.12712
1607.12,-0.12651
1607.13,-0.12728
1607.14,-0.12724
1607.15,-0.12722
1607.16,-0.12706
1607.17,-0.12729
1607.18,-0.12773
1607.19,-0.12769
1607.2,-0.12782
1607.21,-0.12697
1607.22,-0.12741
1607.23,-0.12764
1607.24,-0.12759
1607.25,-0.1277
1607.26,-0.12759
1607.27,-0.12823
1607.28,-0.12835
1607.29,-0.1283
1607.3,-0.12785
1607.31,-0.12796
1607.32,-0.12762
1607.33,-0.12787
1607.34,-0.12795
1607.35,-0.12801
1607.36,-0.12827
1607.37,-0.12811
1607.38,-0.1282
1607.39,-0.12865
1607.4,-0.12894
1607.41,-0.12842
1607.42,-0.12902
1607.43,-0.12874
1607.44,-0.12854
1607.45,-0.12857
1607.46,-0.129
1607.47,-0.12826
1607.48,-0.1297
1607.49,-0.12913
1607.5,-0.12882
1607.51,-0.12987
1607.52,-0.12939
1607.53,-0.12949
1607.54,-0.12908
1607.55,-0.12928
1607.56,-0.12925
1607.57,-0.12904
1607.58,-0.12959
1607.59,-0.12962
1607.6,-0.12946
1607.61,-0.12988
1607.62,-0.12932
1607.63,-0.1297
1607.64,-0.13006
1607.65,-0.12946
1607.66,-0.12928
1607.67,-0.12977
1607.68,-0.12923
1607.69,-0.1293
1607.7,-0.12958
1607.71,-0.13
1607.72,-0.12983
1607.73,-0.12979
1607.74,-0.12989
1607.75,-0.12999
1607.76,-0.13025
1607.77,-0.12931
1607.78,-0.12917
1607.79,-0.12945
1607.8,-0.12897
1607.81,-0.12964
1607.82,-0.12961
1607.83,-0.12993
1607.84,-0.12967
1607.85,-0.12935
1607.86,-0.12964
1607.87,-0.12971
1607.88,-0.12944
1607.89,-0.12896
1607.9,-0.12945
1607.91,-0.12889
1607.92,-0.12887
1607.93,-0.12897
1607.94,-0.12938
1607.95,-0.12898
1607.96,-0.12917
1607.97,-0.12909
1607.98,-0.12884
1607.99,-0.12836
1608,-0.12848
1608.01,-0.1288
1608.02,-0.1286
1608.03,-0.12884
1608.04,-0.1286
1608.05,-0.12902
1608.06,-0.12844
1608.07,-0.1286
1608.08,-0.12866
1608.09,-0.12857
1608.1,-0.1281
1608.11,-0.12802
1608.12,-0.12802
1608.13,-0.12828
1608.14,-0.12759
1608.15,-0.12804
1608.16,-0.12837
1608.17,-0.12878
1608.18,-0.1282
1608.19,-0.12846
1608.2,-0.12804
1608.21,-0.12824
1608.22,-0.12794
1608.23,-0.12829
1608.24,-0.12758
1608.25,-0.12832
1608.26,-0.12756
1608.27,-0.12783
1608.28,-0.12779
1608.29,-0.12847
1608.3,-0.12814
1608.31,-0.12834
1608.32,-0.12793
1608.33,-0.12836
1608.34,-0.12748
1608.35,-0.12866
1608.36,-0.12812
1608.37,-0.12791
1608.38,-0.12841
1608.39,-0.12791
1608.4,-0.12844
1608.41,-0.12846
1608.42,-0.12848
1608.43,-0.12777
1608.44,-0.12852
1608.45,-0.12806
1608.46,-0.12803
1608.47,-0.12823
1608.48,-0.12861
1608.49,-0.12808
1608.5,-0.12822
1608.51,-0.1289
1608.52,-0.12891
1608.53,-0.12837
1608.54,-0.12863
1608.55,-0.12893
1608.56,-0.12788
1608.57,-0.12872
1608.58,-0.12837
1608.59,-0.12912
1608.6,-0.1288
1608.61,-0.12917
1608.62,-0.12897
1608.63,-0.12908
1608.64,-0.12931
1608.65,-0.12906
1608.66,-0.12876
1608.67,-0.12907
1608.68,-0.12885
1608.69,-0.12904
1608.7,-0.12884
1608.71,-0.12952
1608.72,-0.12927
1608.73,-0.12984
1608.74,-0.12999
1608.75,-0.1297
1608.76,-0.12951
1608.77,-0.12976
1608.78,-0.12945
1608.79,-0.12958
1608.8,-0.12976
1608.81,-0.12966
1608.82,-0.12973
1608.83,-0.12964
1608.84,-0.12964
1608.85,-0.13014
1608.86,-0.13013
1608.87,-0.13033
1608.88,-0.13004
1608.89,-0.13035
1608.9,-0.12975
1608.91,-0.12959
1608.92,-0.13006
1608.93,-0.12964
1608.94,-0.12994
1608.95,-0.13051
1608.96,-0.13061
1608.97,-0.13076
1608.98,-0.13057
1608.99,-0.13091
1609,-0.12967
1609.01,-0.13012
1609.02,-0.13027
1609.03,-0.1302
1609.04,-0.13017
1609.05,-0.13039
1609.06,-0.13033
1609.07,-0.13045
1609.08,-0.13062
1609.09,-0.13072
1609.1,-0.13077
1609.11,-0.13038
1609.12,-0.13028
1609.13,-0.13058
1609.14,-0.12959
1609.15,-0.12997
1609.16,-0.13044
1609.17,-0.13024
1609.18,-0.13061
1609.19,-0.13016
1609.2,-0.13051
1609.21,-0.13025
1609.22,-0.12975
1609.23,-0.13046
1609.24,-0.12991
1609.25,-0.1306
1609.26,-0.12983
1609.27,-0.13017
1609.28,-0.13023
1609.29,-0.12995
1609.3,-0.13055
1609.31,-0.13048
1609.32,-0.12981
1609.33,-0.13039
1609.34,-0.13002
1609.35,-0.12973
1609.36,-0.13011
1609.37,-0.13005
1609.38,-0.12965
1609.39,-0.12977
1609.4,-0.13053
1609.41,-0.13056
1609.42,-0.1303
1609.43,-0.13026
1609.44,-0.12955
1609.45,-0.12959
1609.46,-0.12995
1609.47,-0.12982
1609.48,-0.12995
1609.49,-0.12949
1609.5,-0.12953
1609.51,-0.1298
1609.52,-0.13045
1609.53,-0.13006
1609.54,-0.13046
1609.55,-0.13001
1609.56,-0.13
1609.57,-0.12941
1609.58,-0.12972
1609.59,-0.13025
1609.6,-0.13003
1609.61,-0.12974
1609.62,-0.13002
1609.63,-0.13046
1609.64,-0.13026
1609.65,-0.13015
1609.66,-0.1295
1609.67,-0.12958
1609.68,-0.13006
1609.69,-0.12977
1609.7,-0.12983
1609.71,-0.12985
1609.72,-0.12991
1609.73,-0.13028
1609.74,-0.13009
1609.75,-0.13032
1609.76,-0.13047
1609.77,-0.13003
1609.78,-0.13005
1609.79,-0.13014
1609.8,-0.12997
1609.81,-0.13039
1609.82,-0.12982
1609.83,-0.13071
1609.84,-0.13031
1609.85,-0.13051
1609.86,-0.13086
1609.87,-0.1306
1609.88,-0.13025
1609.89,-0.13027
1609.9,-0.13045
1609.91,-0.13049
1609.92,-0.13014
1609.93,-0.13032
1609.94,-0.13034
1609.95,-0.13026
1609.96,-0.13009
1609.97,-0.13201
1609.98,-0.13018
1609.99,-0.13013
1610,-0.12992
1610.01,-0.13071
1610.02,-0.13008
1610.03,-0.13032
1610.04,-0.13082
1610.05,-0.13056
1610.06,-0.13027
1610.07,-0.13055
1610.08,-0.13087
1610.09,-0.13072
1610.1,-0.13138
1610.11,-0.13033
1610.12,-0.13076
1610.13,-0.13046
1610.14,-0.13064
1610.15,-0.13041
1610.16,-0.1312
1610.17,-0.13031
1610.18,-0.131
1610.19,-0.13114
1610.2,-0.13165
1610.21,-0.13079
1610.22,-0.13081
1610.23,-0.13059
1610.24,-0.13098
1610.25,-0.13075
1610.26,-0.13062
1610.27,-0.13084
1610.28,-0.13124
1610.29,-0.13108
1610.3,-0.13134
1610.31,-0.13149
1610.32,-0.13126
1610.33,-0.13106
1610.34,-0.13109
1610.35,-0.13141
1610.36,-0.13103
1610.37,-0.13105
1610.38,-0.13118
1610.39,-0.13109
1610.4,-0.13129
1610.41,-0.13103
1610.42,-0.13158
1610.43,-0.13164
1610.44,-0.13135
1610.45,-0.13108
1610.46,-0.13081
1610.47,-0.13088
1610.48,-0.13092
1610.49,-0.13164
1610.5,-0.13169
1610.51,-0.13184
1610.52,-0.13157
1610.53,-0.13165
1610.54,-0.13165
1610.55,-0.13182
1610.56,-0.13195
1610.57,-0.1311
1610.58,-0.13175
1610.59,-0.13142
1610.6,-0.1316
1610.61,-0.13173
1610.62,-0.13132
1610.63,-0.13217
1610.64,-0.13193
1610.65,-0.13192
1610.66,-0.1324
1610.67,-0.13178
1610.68,-0.13137
1610.69,-0.1313
1610.7,-0.13144
1610.71,-0.13181
1610.72,-0.1313
1610.73,-0.13162
1610.74,-0.13148
1610.75,-0.13163
1610.76,-0.13203
1610.77,-0.13206
1610.78,-0.13173
1610.79,-0.13116
1610.8,-0.13181
1610.81,-0.13177
1610.82,-0.13132
1610.83,-0.1313
1610.84,-0.1315
1610.85,-0.13142
1610.86,-0.13202
1610.87,-0.13167
1610.88,-0.13138
1610.89,-0.13203
1610.9,-0.1315
1610.91,-0.13121
1610.92,-0.13186
1610.93,-0.13085
1610.94,-0.13153
1610.95,-0.13106
1610.96,-0.13103
1610.97,-0.13112
1610.98,-0.13149
1610.99,-0.13155
1611,-0.13104
1611.01,-0.13137
1611.02,-0.13071
1611.03,-0.13079
1611.04,-0.13103
1611.05,-0.13151
1611.06,-0.13102
1611.07,-0.13101
1611.08,-0.13104
1611.09,-0.13164
1611.1,-0.1314
1611.11,-0.13103
1611.12,-0.13086
1611.13,-0.13068
1611.14,-0.13031
1611.15,-0.13047
1611.16,-0.13082
1611.17,-0.13081
1611.18,-0.13132
1611.19,-0.13096
1611.2,-0.13097
1611.21,-0.13122
1611.22,-0.13142
1611.23,-0.13075
1611.24,-0.13038
1611.25,-0.13064
1611.26,-0.13027
1611.27,-0.13049
1611.28,-0.13059
1611.29,-0.13042
1611.3,-0.1307
1611.31,-0.13091
1611.32,-0.1304
1611.33,-0.13111
1611.34,-0.12996
1611.35,-0.13031
1611.36,-0.13022
1611.37,-0.13039
1611.38,-0.13037
1611.39,-0.13013
1611.4,-0.13
1611.41,-0.13061
1611.42,-0.13066
1611.43,-0.13029
1611.44,-0.1307
1611.45,-0.13026
1611.46,-0.13025
1611.47,-0.12998
1611.48,-0.12967
1611.49,-0.13054
1611.5,-0.13039
1611.51,-0.13002
1611.52,-0.13047
1611.53,-0.13026
1611.54,-0.13073
1611.55,-0.13101
1611.56,-0.13045
1611.57,-0.1305
1611.58,-0.12993
1611.59,-0.13039
1611.6,-0.13025
1611.61,-0.13067
1611.62,-0.13043
1611.63,-0.13028
1611.64,-0.13086
1611.65,-0.13085
1611.66,-0.13099
1611.67,-0.1309
1611.68,-0.13066
1611.69,-0.13051
1611.7,-0.13072
1611.71,-0.13063
1611.72,-0.13076
1611.73,-0.13057
1611.74,-0.13099
1611.75,-0.13093
1611.76,-0.13165
1611.77,-0.1314
1611.78,-0.13137
1611.79,-0.131
1611.8,-0.13117
1611.81,-0.13071
1611.82,-0.13131
1611.83,-0.13089
1611.84,-0.13139
1611.85,-0.13145
1611.86,-0.13164
1611.87,-0.13207
1611.88,-0.13146
1611.89,-0.13228
1611.9,-0.13129
1611.91,-0.13245
1611.92,-0.1318
1611.93,-0.13156
1611.94,-0.13151
1611.95,-0.13228
1611.96,-0.1323
1611.97,-0.13202
1611.98,-0.13232
1611.99,-0.13252
1612,-0.13249
1612.01,-0.13204
1612.02,-0.13201
1612.03,-0.13191
1612.04,-0.1318
1612.05,-0.13227
1612.06,-0.13211
1612.07,-0.1324
1612.08,-0.1322
1612.09,-0.13272
1612.1,-0.13289
1612.11,-0.13248
1612.12,-0.13187
1612.13,-0.13226
1612.14,-0.13261
1612.15,-0.13207
1612.16,-0.13172
1612.17,-0.1324
1612.18,-0.13211
1612.19,-0.13292
1612.2,-0.13262
1612.21,-0.13285
1612.22,-0.13248
1612.23,-0.13328
1612.24,-0.13238
1612.25,-0.13206
1612.26,-0.13221
1612.27,-0.13166
1612.28,-0.13212
1612.29,-0.13196
1612.3,-0.13273
1612.31,-0.13253
1612.32,-0.13284
1612.33,-0.13226
1612.34,-0.13239
1612.35,-0.13187
1612.36,-0.13145
1612.37,-0.13155
1612.38,-0.13189
1612.39,-0.13187
1612.4,-0.13189
1612.41,-0.13196
1612.42,-0.13203
1612.43,-0.13157
1612.44,-0.13204
1612.45,-0.13158
1612.46,-0.13132
1612.47,-0.13141
1612.48,-0.13103
1612.49,-0.13111
1612.5,-0.13128
1612.51,-0.13071
1612.52,-0.13197
1612.53,-0.13181
1612.54,-0.13077
1612.55,-0.1314
1612.56,-0.13143
1612.57,-0.13105
1612.58,-0.13079
1612.59,-0.13048
1612.6,-0.13082
1612.61,-0.13047
1612.62,-0.13086
1612.63,-0.13098
1612.64,-0.13099
1612.65,-0.13095
1612.66,-0.13096
1612.67,-0.13099
1612.68,-0.1313
1612.69,-0.13098
1612.7,-0.12998
1612.71,-0.13085
1612.72,-0.13055
1612.73,-0.13119
1612.74,-0.13061
1612.75,-0.13093
1612.76,-0.1312
1612.77,-0.13064
1612.78,-0.13121
1612.79,-0.13045
1612.8,-0.1308
1612.81,-0.13024
1612.82,-0.13038
1612.83,-0.13092
1612.84,-0.13092
1612.85,-0.13078
1612.86,-0.13109
1612.87,-0.13093
1612.88,-0.13117
1612.89,-0.131
1612.9,-0.1307
1612.91,-0.131
1612.92,-0.13095
1612.93,-0.13076
1612.94,-0.13111
1612.95,-0.13058
1612.96,-0.13132
1612.97,-0.13135
1612.98,-0.13165
1612.99,-0.13158
1613,-0.13177
1613.01,-0.13188
1613.02,-0.13175
1613.03,-0.13126
1613.04,-0.13187
1613.05,-0.13168
1613.06,-0.13206
1613.07,-0.13118
1613.08,-0.13136
1613.09,-0.13193
1613.1,-0.13243
1613.11,-0.1325
1613.12,-0.13201
1613.13,-0.13204
1613.14,-0.13194
1613.15,-0.13178
1613.16,-0.13258
1613.17,-0.13258
1613.18,-0.13247
1613.19,-0.13246
1613.2,-0.13275
1613.21,-0.13273
1613.22,-0.13351
1613.23,-0.13291
1613.24,-0.13277
1613.25,-0.13288
1613.26,-0.13195
1613.27,-0.13319
1613.28,-0.1327
1613.29,-0.13345
1613.3,-0.13298
1613.31,-0.13338
1613.32,-0.133
1613.33,-0.13351
1613.34,-0.13373
1613.35,-0.13368
1613.36,-0.13328
1613.37,-0.13289
1613.38,-0.13342
1613.39,-0.13341
1613.4,-0.13347
1613.41,-0.13358
1613.42,-0.13432
1613.43,-0.13381
1613.44,-0.13353
1613.45,-0.13409
1613.46,-0.13419
1613.47,-0.13336
1613.48,-0.13456
1613.49,-0.1331
1613.5,-0.13376
1613.51,-0.1334
1613.52,-0.13372
1613.53,-0.1334
1613.54,-0.13432
1613.55,-0.13402
1613.56,-0.13404
1613.57,-0.13319
1613.58,-0.13345
1613.59,-0.13295
1613.6,-0.13362
1613.61,-0.13297
1613.62,-0.13327
1613.63,-0.13352
1613.64,-0.1333
1613.65,-0.13379
1613.66,-0.13311
1613.67,-0.13361
1613.68,-0.13288
1613.69,-0.1328
1613.7,-0.13311
1613.71,-0.13276
1613.72,-0.13268
1613.73,-0.13352
1613.74,-0.13275
1613.75,-0.13281
1613.76,-0.13278
1613.77,-0.13311
1613.78,-0.13333
1613.79,-0.13247
1613.8,-0.13278
1613.81,-0.13286
1613.82,-0.13216
1613.83,-0.13232
1613.84,-0.13269
1613.85,-0.13234
1613.86,-0.13282
1613.87,-0.13237
1613.88,-0.13223
1613.89,-0.13235
1613.9,-0.13292
1613.91,-0.13252
1613.92,-0.13241
1613.93,-0.13206
1613.94,-0.13205
1613.95,-0.13175
1613.96,-0.13197
1613.97,-0.13247
1613.98,-0.13242
1613.99,-0.13215
1614,-0.13262
1614.01,-0.13274
1614.02,-0.13204
1614.03,-0.13197
1614.04,-0.13166
1614.05,-0.13182
1614.06,-0.13191
1614.07,-0.13187
1614.08,-0.13215
1614.09,-0.13212
1614.1,-0.13224
1614.11,-0.13212
1614.12,-0.13229
1614.13,-0.1323
1614.14,-0.13197
1614.15,-0.13171
1614.16,-0.13216
1614.17,-0.13179
1614.18,-0.13182
1614.19,-0.13256
1614.2,-0.13197
1614.21,-0.13279
1614.22,-0.13235
1614.23,-0.13267
1614.24,-0.13242
1614.25,-0.13227
1614.26,-0.13154
1614.27,-0.13205
1614.28,-0.132
1614.29,-0.13206
1614.3,-0.13254
1614.31,-0.1326
1614.32,-0.13297
1614.33,-0.13274
1614.34,-0.1329
1614.35,-0.13295
1614.36,-0.13286
1614.37,-0.1322
1614.38,-0.13304
1614.39,-0.13305
1614.4,-0.13318
1614.41,-0.13325
1614.42,-0.13336
1614.43,-0.1334
1614.44,-0.1334
1614.45,-0.13342
1614.46,-0.13343
1614.47,-0.13353
1614.48,-0.1335
1614.49,-0.13344
1614.5,-0.13275
1614.51,-0.13296
1614.52,-0.13389
1614.53,-0.13303
1614.54,-0.13364
1614.55,-0.13343
1614.56,-0.1343
1614.57,-0.13359
1614.58,-0.13383
1614.59,-0.13417
1614.6,-0.13339
1614.61,-0.13343
1614.62,-0.1333
1614.63,-0.13335
1614.64,-0.1342
1614.65,-0.13412
1614.66,-0.13389
1614.67,-0.13393
1614.68,-0.13416
1614.69,-0.13379
1614.7,-0.13389
1614.71,-0.13357
1614.72,-0.13357
1614.73,-0.13374
1614.74,-0.13393
1614.75,-0.13346
1614.76,-0.13373
1614.77,-0.13466
1614.78,-0.13382
1614.79,-0.13426
1614.8,-0.13346
1614.81,-0.13397
1614.82,-0.13358
1614.83,-0.13397
1614.84,-0.13368
1614.85,-0.13371
1614.86,-0.13315
1614.87,-0.13411
1614.88,-0.13423
1614.89,-0.13407
1614.9,-0.13416
1614.91,-0.13372
1614.92,-0.13364
1614.93,-0.1335
1614.94,-0.13351
1614.95,-0.13318
1614.96,-0.13339
1614.97,-0.13374
1614.98,-0.13404
1614.99,-0.13359
1615,-0.13397
1615.01,-0.13455
1615.02,-0.13391
1615.03,-0.13429
1615.04,-0.13352
1615.05,-0.13357
1615.06,-0.13327
1615.07,-0.1337
1615.08,-0.13353
1615.09,-0.13336
1615.1,-0.13407
1615.11,-0.13377
1615.12,-0.13429
1615.13,-0.13402
1615.14,-0.13405
1615.15,-0.1336
1615.16,-0.13402
1615.17,-0.1334
1615.18,-0.13346
1615.19,-0.13377
1615.2,-0.1338
1615.21,-0.13329
1615.22,-0.13377
1615.23,-0.13401
1615.24,-0.13353
1615.25,-0.13363
1615.26,-0.13319
1615.27,-0.13334
1615.28,-0.13277
1615.29,-0.13348
1615.3,-0.13297
1615.31,-0.13374
1615.32,-0.13312
1615.33,-0.13385
1615.34,-0.13398
1615.35,-0.13342
1615.36,-0.13307
1615.37,-0.13316
1615.38,-0.13261
1615.39,-0.1332
1615.4,-0.13334
1615.41,-0.13329
1615.42,-0.13314
1615.43,-0.13322
1615.44,-0.13347
1615.45,-0.13365
1615.46,-0.1333
1615.47,-0.13358
1615.48,-0.13321
1615.49,-0.13307
1615.5,-0.13307
1615.51,-0.13283
1615.52,-0.13307
1615.53,-0.13348
1615.54,-0.1333
1615.55,-0.1335
1615.56,-0.13351
1615.57,-0.13371
1615.58,-0.13336
1615.59,-0.13359
1615.6,-0.1333
1615.61,-0.13319
1615.62,-0.1331
1615.63,-0.13342
1615.64,-0.13299
1615.65,-0.13351
1615.66,-0.13357
1615.67,-0.13358
1615.68,-0.13378
1615.69,-0.13305
1615.7,-0.13334
1615.71,-0.13257
1615.72,-0.13415
1615.73,-0.13276
1615.74,-0.13318
1615.75,-0.13291
1615.76,-0.13337
1615.77,-0.13351
1615.78,-0.13321
1615.79,-0.13381
1615.8,-0.13299
1615.81,-0.13374
1615.82,-0.13303
1615.83,-0.13368
1615.84,-0.13307
1615.85,-0.13319
1615.86,-0.13334
1615.87,-0.1333
1615.88,-0.13322
1615.89,-0.13413
1615.9,-0.13363
1615.91,-0.13371
1615.92,-0.13374
1615.93,-0.13329
1615.94,-0.13342
1615.95,-0.13314
1615.96,-0.13389
1615.97,-0.13328
1615.98,-0.13364
1615.99,-0.13345
1616,-0.13355
1616.01,-0.13332
1616.02,-0.13445
1616.03,-0.13364
1616.04,-0.13347
1616.05,-0.13366
1616.06,-0.13337
1616.07,-0.13373
1616.08,-0.13362
1616.09,-0.13356
1616.1,-0.13407
1616.11,-0.13382
1616.12,-0.13419
1616.13,-0.13437
1616.14,-0.13404
1616.15,-0.13384
1616.16,-0.13388
1616.17,-0.13358
1616.18,-0.1338
1616.19,-0.13388
1616.2,-0.13412
1616.21,-0.13355
1616.22,-0.13536
1616.23,-0.13382
1616.24,-0.13399
1616.25,-0.1349
1616.26,-0.13471
1616.27,-0.13387
1616.28,-0.13432
1616.29,-0.13405
1616.3,-0.13416
1616.31,-0.13423
1616.32,-0.13468
1616.33,-0.13471
1616.34,-0.13445
1616.35,-0.13468
1616.36,-0.13459
1616.37,-0.13437
1616.38,-0.13469
1616.39,-0.13421
1616.4,-0.13445
1616.41,-0.13459
1616.42,-0.13468
1616.43,-0.13431
1616.44,-0.13482
1616.45,-0.13465
1616.46,-0.13537
1616.47,-0.13505
1616.48,-0.13497
1616.49,-0.13421
1616.5,-0.13461
1616.51,-0.13494
1616.52,-0.13457
1616.53,-0.13494
1616.54,-0.13531
1616.55,-0.13484
1616.56,-0.13514
1616.57,-0.13568
1616.58,-0.13509
1616.59,-0.13476
1616.6,-0.13511
1616.61,-0.13476
1616.62,-0.13521
1616.63,-0.13455
1616.64,-0.13535
1616.65,-0.13499
1616.66,-0.13502
1616.67,-0.13533
1616.68,-0.13544
1616.69,-0.13555
1616.7,-0.13519
1616.71,-0.13553
1616.72,-0.13467
1616.73,-0.13466
1616.74,-0.13503
1616.75,-0.13517
1616.76,-0.1353
1616.77,-0.13511
1616.78,-0.13493
1616.79,-0.13515
1616.8,-0.13615
1616.81,-0.13537
1616.82,-0.13583
1616.83,-0.13459
1616.84,-0.13492
1616.85,-0.13467
1616.86,-0.13481
1616.87,-0.13475
1616.88,-0.13494
1616.89,-0.13492
1616.9,-0.13521
1616.91,-0.13509
1616.92,-0.13487
1616.93,-0.13449
1616.94,-0.13458
1616.95,-0.13455
1616.96,-0.13494
1616.97,-0.13387
1616.98,-0.13476
1616.99,-0.13469
1617,-0.13454
1617.01,-0.1352
1617.02,-0.13495
1617.03,-0.13475
1617.04,-0.13497
1617.05,-0.13398
1617.06,-0.13462
1617.07,-0.13365
1617.08,-0.13422
1617.09,-0.13492
1617.1,-0.1341
1617.11,-0.1348
1617.12,-0.13467
1617.13,-0.13471
1617.14,-0.13435
1617.15,-0.1341
1617.16,-0.13444
1617.17,-0.13419
1617.18,-0.13412
1617.19,-0.13418
1617.2,-0.13452
1617.21,-0.13437
1617.22,-0.13485
1617.23,-0.13397
1617.24,-0.13522
1617.25,-0.13404
1617.26,-0.13459
1617.27,-0.13474
1617.28,-0.13456
1617.29,-0.13427
1617.3,-0.13416
1617.31,-0.13456
1617.32,-0.1346
1617.33,-0.13483
1617.34,-0.13514
1617.35,-0.13489
1617.36,-0.13506
1617.37,-0.13515
1617.38,-0.13456
1617.39,-0.13461
1617.4,-0.13456
1617.41,-0.1347
1617.42,-0.13483
1617.43,-0.13486
1617.44,-0.13495
1617.45,-0.13532
1617.46,-0.13487
1617.47,-0.13538
1617.48,-0.13529
1617.49,-0.13532
1617.5,-0.13532
1617.51,-0.13489
1617.52,-0.13538
1617.53,-0.1352
1617.54,-0.13547
1617.55,-0.1362
1617.56,-0.13542
1617.57,-0.13621
1617.58,-0.13593
1617.59,-0.13603
1617.6,-0.13559
1617.61,-0.13571
1617.62,-0.1355
1617.63,-0.13571
1617.64,-0.13559
1617.65,-0.1357
1617.66,-0.13554
1617.67,-0.13611
1617.68,-0.13607
1617.69,-0.13634
1617.7,-0.13628
1617.71,-0.13622
1617.72,-0.13654
1617.73,-0.13593
1617.74,-0.13565
1617.75,-0.13612
1617.76,-0.13637
1617.77,-0.13654
1617.78,-0.13626
1617.79,-0.13645
1617.8,-0.13663
1617.81,-0.13676
1617.82,-0.13645
1617.83,-0.1363
1617.84,-0.13646
1617.85,-0.13654
1617.86,-0.13662
1617.87,-0.13623
1617.88,-0.13625
1617.89,-0.13656
1617.9,-0.13655
1617.91,-0.13714
1617.92,-0.13726
1617.93,-0.13627
1617.94,-0.13645
1617.95,-0.13652
1617.96,-0.13613
1617.97,-0.1363
1617.98,-0.13658
1617.99,-0.13654
1618,-0.13655
1618.01,-0.13684
1618.02,-0.13682
1618.03,-0.1371
1618.04,-0.1368
1618.05,-0.13583
1618.06,-0.13669
1618.07,-0.1359
1618.08,-0.13568
1618.09,-0.13624
1618.1,-0.13631
1618.11,-0.13615
1618.12,-0.13619
1618.13,-0.13666
1618.14,-0.13655
1618.15,-0.13636
1618.16,-0.13589
1618.17,-0.13581
1618.18,-0.13608
1618.19,-0.13565
1618.2,-0.13588
1618.21,-0.13594
1618.22,-0.1359
1618.23,-0.13602
1618.24,-0.13654
1618.25,-0.13617
1618.26,-0.13577
1618.27,-0.13583
1618.28,-0.13565
1618.29,-0.13569
1618.3,-0.13518
1618.31,-0.13548
1618.32,-0.13568
1618.33,-0.13565
1618.34,-0.13561
1618.35,-0.13566
1618.36,-0.13587
1618.37,-0.13585
1618.38,-0.13535
1618.39,-0.13527
1618.4,-0.13549
1618.41,-0.135
1618.42,-0.13503
1618.43,-0.13518
1618.44,-0.13485
1618.45,-0.13548
1618.46,-0.13504
1618.47,-0.13571
1618.48,-0.13575
1618.49,-0.13526
1618.5,-0.13542
1618.51,-0.1353
1618.52,-0.13466
1618.53,-0.13544
1618.54,-0.13516
1618.55,-0.1355
1618.56,-0.13578
1618.57,-0.13604
1618.58,-0.13581
1618.59,-0.13593
1618.6,-0.13597
1618.61,-0.13506
1618.62,-0.13562
1618.63,-0.1354
1618.64,-0.1353
1618.65,-0.13562
1618.66,-0.13592
1618.67,-0.13608
1618.68,-0.13573
1618.69,-0.13616
1618.7,-0.13627
1618.71,-0.13601
1618.72,-0.13585
1618.73,-0.13589
1618.74,-0.13601
1618.75,-0.13528
1618.76,-0.13661
1618.77,-0.13581
1618.78,-0.1369
1618.79,-0.13611
1618.8,-0.13689
1618.81,-0.13647
1618.82,-0.13611
1618.83,-0.13691
1618.84,-0.13626
1618.85,-0.13681
1618.86,-0.13573
1618.87,-0.13628
1618.88,-0.13647
1618.89,-0.13616
1618.9,-0.13688
1618.91,-0.13719
1618.92,-0.13672
1618.93,-0.13742
1618.94,-0.13689
1618.95,-0.13639
1618.96,-0.13676
1618.97,-0.13696
1618.98,-0.13717
1618.99,-0.13687
1619,-0.13711
1619.01,-0.13688
1619.02,-0.13769
1619.03,-0.13735
1619.04,-0.13789
1619.05,-0.13714
1619.06,-0.13708
1619.07,-0.13698
1619.08,-0.13723
1619.09,-0.13714
1619.1,-0.1371
1619.11,-0.13753
1619.12,-0.13737
1619.13,-0.13758
1619.14,-0.138
1619.15,-0.13825
1619.16,-0.13761
1619.17,-0.13727
1619.18,-0.1377
1619.19,-0.13709
1619.2,-0.13759
1619.21,-0.13754
1619.22,-0.13738
1619.23,-0.13774
1619.24,-0.13782
1619.25,-0.1379
1619.26,-0.13747
1619.27,-0.13733
1619.28,-0.13764
1619.29,-0.13726
1619.3,-0.13723
1619.31,-0.13687
1619.32,-0.13698
1619.33,-0.13769
1619.34,-0.13729
1619.35,-0.13716
1619.36,-0.13725
1619.37,-0.13782
1619.38,-0.13671
1619.39,-0.1369
1619.4,-0.1366
1619.41,-0.13659
1619.42,-0.13696
1619.43,-0.13655
1619.44,-0.13646
1619.45,-0.13667
1619.46,-0.13686
1619.47,-0.13719
1619.48,-0.13699
1619.49,-0.13682
1619.5,-0.13669
1619.51,-0.13669
1619.52,-0.13627
1619.53,-0.13658
1619.54,-0.13628
1619.55,-0.13669
1619.56,-0.13608
1619.57,-0.13669
1619.58,-0.13662
1619.59,-0.13627
1619.6,-0.13644
1619.61,-0.13651
1619.62,-0.13617
1619.63,-0.13597
1619.64,-0.13557
1619.65,-0.13573
1619.66,-0.13593
1619.67,-0.13594
1619.68,-0.1359
1619.69,-0.13602
1619.7,-0.13583
1619.71,-0.13651
1619.72,-0.13629
1619.73,-0.13607
1619.74,-0.1358
1619.75,-0.13573
1619.76,-0.13564
1619.77,-0.13551
1619.78,-0.13602
1619.79,-0.13592
1619.8,-0.13612
1619.81,-0.13635
1619.82,-0.13654
1619.83,-0.13601
1619.84,-0.13577
1619.85,-0.13539
1619.86,-0.13559
1619.87,-0.13613
1619.88,-0.13613
1619.89,-0.13551
1619.9,-0.136
1619.91,-0.13624
1619.92,-0.13601
1619.93,-0.13669
1619.94,-0.13606
1619.95,-0.13632
1619.96,-0.13642
1619.97,-0.13594
1619.98,-0.13557
1619.99,-0.13626
1620,-0.13624
1620.01,-0.13674
1620.02,-0.13648
1620.03,-0.13662
1620.04,-0.13691
1620.05,-0.1367
1620.06,-0.13685
1620.07,-0.1362
1620.08,-0.13648
1620.09,-0.13564
1620.1,-0.13704
1620.11,-0.13692
1620.12,-0.13692
1620.13,-0.13684
1620.14,-0.13717
1620.15,-0.13721
1620.16,-0.13752
1620.17,-0.13709
1620.18,-0.13671
1620.19,-0.13685
1620.2,-0.13685
1620.21,-0.13691
1620.22,-0.13712
1620.23,-0.13711
1620.24,-0.13709
1620.25,-0.13748
1620.26,-0.13829
1620.27,-0.13838
1620.28,-0.13686
1620.29,-0.13893
1620.3,-0.13883
1620.31,-0.13868
1620.32,-0.13878
1620.33,-0.13848
1620.34,-0.13835
1620.35,-0.13849
1620.36,-0.13843
1620.37,-0.13862
1620.38,-0.13879
1620.39,-0.13835
1620.4,-0.1385
1620.41,-0.13908
1620.42,-0.13806
1620.43,-0.13859
1620.44,-0.13874
1620.45,-0.13896
1620.46,-0.13921
1620.47,-0.13898
1620.48,-0.13924
1620.49,-0.13903
1620.5,-0.13936
1620.51,-0.13911
1620.52,-0.13881
1620.53,-0.13925
1620.54,-0.13844
1620.55,-0.13875
1620.56,-0.13874
1620.57,-0.13908
1620.58,-0.13912
1620.59,-0.13926
1620.6,-0.13894
1620.61,-0.13964
1620.62,-0.1387
1620.63,-0.13888
1620.64,-0.13864
1620.65,-0.13832
1620.66,-0.13896
1620.67,-0.13832
1620.68,-0.13919
1620.69,-0.13842
1620.7,-0.13911
1620.71,-0.13917
1620.72,-0.13894
1620.73,-0.13894
1620.74,-0.1388
1620.75,-0.13854
1620.76,-0.13836
1620.77,-0.13834
1620.78,-0.13871
1620.79,-0.13864
1620.8,-0.13876
1620.81,-0.13886
1620.82,-0.13871
1620.83,-0.13919
1620.84,-0.13869
1620.85,-0.13861
1620.86,-0.13869
1620.87,-0.13847
1620.88,-0.13837
1620.89,-0.13873
1620.9,-0.13858
1620.91,-0.13859
1620.92,-0.13909
1620.93,-0.13908
1620.94,-0.13909
1620.95,-0.13883
1620.96,-0.13862
1620.97,-0.13852
1620.98,-0.13817
1620.99,-0.13839
1621,-0.13853
1621.01,-0.13859
1621.02,-0.1384
1621.03,-0.13878
1621.04,-0.13853
1621.05,-0.13886
1621.06,-0.13859
1621.07,-0.13891
1621.08,-0.13801
1621.09,-0.13844
1621.1,-0.13858
1621.11,-0.13826
1621.12,-0.13842
1621.13,-0.13818
1621.14,-0.13877
1621.15,-0.13866
1621.16,-0.13851
1621.17,-0.13895
1621.18,-0.13855
1621.19,-0.13824
1621.2,-0.13817
1621.21,-0.13823
1621.22,-0.1381
1621.23,-0.138
1621.24,-0.13732
1621.25,-0.13959
1621.26,-0.13832
1621.27,-0.13899
1621.28,-0.1383
1621.29,-0.13812
1621.3,-0.138
1621.31,-0.13821
1621.32,-0.13787
1621.33,-0.138
1621.34,-0.13829
1621.35,-0.13841
1621.36,-0.13882
1621.37,-0.13833
1621.38,-0.13855
1621.39,-0.13868
1621.4,-0.13868
1621.41,-0.13775
1621.42,-0.1385
1621.43,-0.13838
1621.44,-0.1382
1621.45,-0.13812
1621.46,-0.13833
1621.47,-0.13813
1621.48,-0.13862
1621.49,-0.13895
1621.5,-0.13878
1621.51,-0.1386
1621.52,-0.1383
1621.53,-0.13794
1621.54,-0.13796
1621.55,-0.13858
1621.56,-0.13854
1621.57,-0.13828
1621.58,-0.13863
1621.59,-0.13886
1621.6,-0.13874
1621.61,-0.13895
1621.62,-0.13904
1621.63,-0.13844
1621.64,-0.1387
1621.65,-0.13913
1621.66,-0.13873
1621.67,-0.13848
1621.68,-0.1387
1621.69,-0.13879
1621.7,-0.13945
1621.71,-0.13856
1621.72,-0.13911
1621.73,-0.13929
1621.74,-0.13914
1621.75,-0.13888
1621.76,-0.13911
1621.77,-0.13929
1621.78,-0.1387
1621.79,-0.1394
1621.8,-0.13907
1621.81,-0.13949
1621.82,-0.13972
1621.83,-0.13973
1621.84,-0.13942
1621.85,-0.13978
1621.86,-0.13936
1621.87,-0.13937
1621.88,-0.13883
1621.89,-0.13961
1621.9,-0.13957
1621.91,-0.13985
1621.92,-0.13959
1621.93,-0.14031
1621.94,-0.13977
1621.95,-0.14032
1621.96,-0.13977
1621.97,-0.13951
1621.98,-0.13971
1621.99,-0.14075
1622,-0.13839
1622.01,-0.13993
1622.02,-0.14001
1622.03,-0.14008
1622.04,-0.13997
1622.05,-0.14016
1622.06,-0.14042
1622.07,-0.13976
1622.08,-0.14017
1622.09,-0.13969
1622.1,-0.13996
1622.11,-0.14035
1622.12,-0.13978
1622.13,-0.14066
1622.14,-0.14013
1622.15,-0.13988
1622.16,-0.14047
1622.17,-0.14031
1622.18,-0.14041
1622.19,-0.13984
1622.2,-0.1401
1622.21,-0.13976
1622.22,-0.13971
1622.23,-0.13979
1622.24,-0.13992
1622.25,-0.13971
1622.26,-0.13998
1622.27,-0.14007
1622.28,-0.14021
1622.29,-0.14033
1622.3,-0.14003
1622.31,-0.13955
1622.32,-0.13954
1622.33,-0.13939
1622.34,-0.13978
1622.35,-0.13984
1622.36,-0.13947
1622.37,-0.14008
1622.38,-0.13951
1622.39,-0.13974
1622.4,-0.1401
1622.41,-0.13971
1622.42,-0.13948
1622.43,-0.1389
1622.44,-0.13961
1622.45,-0.1389
1622.46,-0.139
1622.47,-0.13928
1622.48,-0.13888
1622.49,-0.13959
1622.5,-0.13932
1622.51,-0.13953
1622.52,-0.1389
1622.53,-0.13876
1622.54,-0.13835
1622.55,-0.13878
1622.56,-0.13875
1622.57,-0.13906
1622.58,-0.13883
1622.59,-0.1391
1622.6,-0.13892
1622.61,-0.13864
1622.62,-0.13919
1622.63,-0.13859
1622.64,-0.13857
1622.65,-0.13849
1622.66,-0.13862
1622.67,-0.13781
1622.68,-0.13843
1622.69,-0.13857
1622.7,-0.13822
1622.71,-0.13895
1622.72,-0.13852
1622.73,-0.13846
1622.74,-0.13857
1622.75,-0.13797
1622.76,-0.13816
1622.77,-0.13809
1622.78,-0.13795
1622.79,-0.13825
1622.8,-0.13877
1622.81,-0.13908
1622.82,-0.1387
1622.83,-0.13867
1622.84,-0.139
1622.85,-0.13882
1622.86,-0.13833
1622.87,-0.13834
1622.88,-0.13843
1622.89,-0.13807
1622.9,-0.13833
1622.91,-0.13881
1622.92,-0.13868
1622.93,-0.13883
1622.94,-0.13968
1622.95,-0.13849
1622.96,-0.13947
1622.97,-0.13866
1622.98,-0.13864
1622.99,-0.13871
1623,-0.13897
1623.01,-0.13884
1623.02,-0.13903
1623.03,-0.13879
1623.04,-0.13942
1623.05,-0.13968
1623.06,-0.13982
1623.07,-0.13938
1623.08,-0.13991
1623.09,-0.13989
1623.1,-0.13948
1623.11,-0.13977
1623.12,-0.13987
1623.13,-0.13926
1623.14,-0.14009
1623.15,-0.14022
1623.16,-0.14008
1623.17,-0.14082
1623.18,-0.14039
1623.19,-0.14007
1623.2,-0.14011
1623.21,-0.14011
1623.22,-0.14011
1623.23,-0.14054
1623.24,-0.14112
1623.25,-0.13986
1623.26,-0.14066
1623.27,-0.14138
1623.28,-0.1415
1623.29,-0.14115
1623.3,-0.1415
1623.31,-0.14142
1623.32,-0.14086
1623.33,-0.14081
1623.34,-0.14086
1623.35,-0.14116
1623.36,-0.14078
1623.37,-0.14143
1623.38,-0.14124
1623.39,-0.14082
1623.4,-0.14145
1623.41,-0.14131
1623.42,-0.14101
1623.43,-0.1412
1623.44,-0.14042
1623.45,-0.14101
1623.46,-0.14059
1623.47,-0.14072
1623.48,-0.14032
1623.49,-0.14133
1623.5,-0.14129
1623.51,-0.14136
1623.52,-0.14127
1623.53,-0.14099
1623.54,-0.14097
1623.55,-0.14084
1623.56,-0.14058
1623.57,-0.14078
1623.58,-0.1408
1623.59,-0.14075
1623.6,-0.14105
1623.61,-0.14085
1623.62,-0.14112
1623.63,-0.14094
1623.64,-0.1407
1623.65,-0.14105
1623.66,-0.14047
1623.67,-0.14074
1623.68,-0.14059
1623.69,-0.14063
1623.7,-0.14048
1623.71,-0.14068
1623.72,-0.14072
1623.73,-0.14007
1623.74,-0.14103
1623.75,-0.14039
1623.76,-0.13974
1623.77,-0.13998
1623.78,-0.1397
1623.79,-0.13982
1623.8,-0.13961
1623.81,-0.13999
1623.82,-0.14008
1623.83,-0.14018
1623.84,-0.13994
1623.85,-0.14002
1623.86,-0.14003
1623.87,-0.13996
1623.88,-0.13959
1623.89,-0.13946
1623.9,-0.13974
1623.91,-0.13938
1623.92,-0.13972
1623.93,-0.13978
1623.94,-0.13978
1623.95,-0.13998
1623.96,-0.14021
1623.97,-0.13992
1623.98,-0.13994
1623.99,-0.13963
1624,-0.13998
1624.01,-0.13912
1624.02,-0.13965
1624.03,-0.1396
1624.04,-0.13987
1624.05,-0.13959
1624.06,-0.13999
1624.07,-0.13948
1624.08,-0.13971
1624.09,-0.13952
1624.1,-0.1394
1624.11,-0.1399
1624.12,-0.13937
1624.13,-0.13953
1624.14,-0.13972
1624.15,-0.13944
1624.16,-0.14004
1624.17,-0.14008
1624.18,-0.14001
1624.19,-0.1401
1624.2,-0.13969
1624.21,-0.13981
1624.22,-0.14028
1624.23,-0.13993
1624.24,-0.14027
1624.25,-0.14069
1624.26,-0.14013
1624.27,-0.14157
1624.28,-0.14108
1624.29,-0.14151
1624.3,-0.14132
1624.31,-0.14123
1624.32,-0.1414
1624.33,-0.14127
1624.34,-0.14057
1624.35,-0.14114
1624.36,-0.14114
1624.37,-0.14142
1624.38,-0.14147
1624.39,-0.14151
1624.4,-0.14164
1624.41,-0.14155
1624.42,-0.14166
1624.43,-0.14175
1624.44,-0.14123
1624.45,-0.14126
1624.46,-0.14151
1624.47,-0.14192
1624.48,-0.14214
1624.49,-0.14216
1624.5,-0.14286
1624.51,-0.14271
1624.52,-0.14276
1624.53,-0.1426
1624.54,-0.14236
1624.55,-0.14231
1624.56,-0.14161
1624.57,-0.14208
1624.58,-0.14175
1624.59,-0.14182
1624.6,-0.14239
1624.61,-0.14255
1624.62,-0.14262
1624.63,-0.14261
1624.64,-0.14209
1624.65,-0.14204
1624.66,-0.14228
1624.67,-0.14197
1624.68,-0.14277
1624.69,-0.14247
1624.7,-0.14259
1624.71,-0.1426
1624.72,-0.14243
1624.73,-0.14277
1624.74,-0.14278
1624.75,-0.14301
1624.76,-0.14304
1624.77,-0.14244
1624.78,-0.1423
1624.79,-0.14226
1624.8,-0.14255
1624.81,-0.14233
1624.82,-0.14269
1624.83,-0.1424
1624.84,-0.14271
1624.85,-0.14259
1624.86,-0.1424
1624.87,-0.14156
1624.88,-0.14216
1624.89,-0.14218
1624.9,-0.14184
1624.91,-0.14193
1624.92,-0.14213
1624.93,-0.14168
1624.94,-0.14248
1624.95,-0.14239
1624.96,-0.14261
1624.97,-0.14205
1624.98,-0.14261
1624.99,-0.14187
1625,-0.14196
1625.01,-0.14187
1625.02,-0.14188
1625.03,-0.14204
1625.04,-0.14172
1625.05,-0.14167
1625.06,-0.14203
1625.07,-0.14187
1625.08,-0.14188
1625.09,-0.1417
1625.1,-0.14138
1625.11,-0.14144
1625.12,-0.14141
1625.13,-0.14115
1625.14,-0.14105
1625.15,-0.14167
1625.16,-0.14137
1625.17,-0.14134
1625.18,-0.14145
1625.19,-0.14188
1625.2,-0.14189
1625.21,-0.14162
1625.22,-0.14099
1625.23,-0.14132
1625.24,-0.14089
1625.25,-0.14102
1625.26,-0.14152
1625.27,-0.14128
1625.28,-0.14183
1625.29,-0.14163
1625.3,-0.14178
1625.31,-0.14161
1625.32,-0.14112
1625.33,-0.141
1625.34,-0.14126
1625.35,-0.14064
1625.36,-0.14084
1625.37,-0.1413
1625.38,-0.14104
1625.39,-0.14169
1625.4,-0.14149
1625.41,-0.14169
1625.42,-0.14218
1625.43,-0.14159
1625.44,-0.1415
1625.45,-0.14174
1625.46,-0.1409
1625.47,-0.14202
1625.48,-0.14207
1625.49,-0.14187
1625.5,-0.14201
1625.51,-0.14261
1625.52,-0.14269
1625.53,-0.14232
1625.54,-0.14274
1625.55,-0.14188
1625.56,-0.142
1625.57,-0.14189
1625.58,-0.14205
1625.59,-0.1419
1625.6,-0.14217
1625.61,-0.14202
1625.62,-0.14243
1625.63,-0.14242
1625.64,-0.143
1625.65,-0.14246
1625.66,-0.14211
1625.67,-0.14253
1625.68,-0.14267
1625.69,-0.14275
1625.7,-0.14232
1625.71,-0.1427
1625.72,-0.14359
1625.73,-0.14323
1625.74,-0.14329
1625.75,-0.14308
1625.76,-0.14339
1625.77,-0.14354
1625.78,-0.14295
1625.79,-0.14326
1625.8,-0.14219
1625.81,-0.14258
1625.82,-0.14312
1625.83,-0.1426
1625.84,-0.14329
1625.85,-0.14378
1625.86,-0.14303
1625.87,-0.14302
1625.88,-0.14319
1625.89,-0.14321
1625.9,-0.14296
1625.91,-0.14304
1625.92,-0.14308
1625.93,-0.14285
1625.94,-0.14299
1625.95,-0.14342
1625.96,-0.14364
1625.97,-0.14356
1625.98,-0.14334
1625.99,-0.14345
1626,-0.143
1626.01,-0.14294
1626.02,-0.14283
1626.03,-0.1426
1626.04,-0.14277
1626.05,-0.14294
1626.06,-0.14308
1626.07,-0.14324
1626.08,-0.14304
1626.09,-0.14383
1626.1,-0.14317
1626.11,-0.14295
1626.12,-0.14295
1626.13,-0.14273
1626.14,-0.14294
1626.15,-0.14261
1626.16,-0.1425
1626.17,-0.14256
1626.18,-0.14257
1626.19,-0.14268
1626.2,-0.14265
1626.21,-0.14263
1626.22,-0.14221
1626.23,-0.1422
1626.24,-0.14173
1626.25,-0.14203
1626.26,-0.14231
1626.27,-0.14195
1626.28,-0.14268
1626.29,-0.14232
1626.3,-0.14286
1626.31,-0.14345
1626.32,-0.14261
1626.33,-0.14249
1626.34,-0.14272
1626.35,-0.14242
1626.36,-0.1425
1626.37,-0.14243
1626.38,-0.14248
1626.39,-0.1429
1626.4,-0.14303
1626.41,-0.14323
1626.42,-0.14301
1626.43,-0.14306
1626.44,-0.14302
1626.45,-0.14239
1626.46,-0.14202
1626.47,-0.14218
1626.48,-0.1421
1626.49,-0.14209
1626.5,-0.14155
1626.51,-0.14258
1626.52,-0.14241
1626.53,-0.14231
1626.54,-0.14219
1626.55,-0.14198
1626.56,-0.1418
1626.57,-0.14197
1626.58,-0.1417
1626.59,-0.14198
1626.6,-0.14193
1626.61,-0.14201
1626.62,-0.14246
1626.63,-0.14272
1626.64,-0.1426
1626.65,-0.14337
1626.66,-0.14243
1626.67,-0.1429
1626.68,-0.14269
1626.69,-0.1431
1626.7,-0.14283
1626.71,-0.14328
1626.72,-0.14321
1626.73,-0.14306
1626.74,-0.14292
1626.75,-0.14291
1626.76,-0.14311
1626.77,-0.14325
1626.78,-0.14211
1626.79,-0.14244
1626.8,-0.14193
1626.81,-0.14283
1626.82,-0.14235
1626.83,-0.14231
1626.84,-0.14261
1626.85,-0.14306
1626.86,-0.14302
1626.87,-0.14272
1626.88,-0.14269
1626.89,-0.14368
1626.9,-0.14336
1626.91,-0.1436
1626.92,-0.14279
1626.93,-0.14335
1626.94,-0.14381
1626.95,-0.14346
1626.96,-0.14365
1626.97,-0.14394
1626.98,-0.14299
1626.99,-0.14315
1627,-0.14295
1627.01,-0.14263
1627.02,-0.14265
1627.03,-0.14269
1627.04,-0.14264
1627.05,-0.14303
1627.06,-0.14278
1627.07,-0.14316
1627.08,-0.14325
1627.09,-0.1435
1627.1,-0.14401
1627.11,-0.14252
1627.12,-0.14306
1627.13,-0.14278
1627.14,-0.14268
1627.15,-0.14281
1627.16,-0.14274
1627.17,-0.14274
1627.18,-0.14255
1627.19,-0.14294
1627.2,-0.14293
1627.21,-0.14277
1627.22,-0.14275
1627.23,-0.14191
1627.24,-0.14282
1627.25,-0.14033
1627.26,-0.14266
1627.27,-0.14248
1627.28,-0.14179
1627.29,-0.14248
1627.3,-0.1427
1627.31,-0.14208
1627.32,-0.14227
1627.33,-0.14256
1627.34,-0.14184
1627.35,-0.14214
1627.36,-0.14177
1627.37,-0.14167
1627.38,-0.14227
1627.39,-0.14216
1627.4,-0.14205
1627.41,-0.14224
1627.42,-0.1423
1627.43,-0.14259
1627.44,-0.14231
1627.45,-0.14221
1627.46,-0.14199
1627.47,-0.14168
1627.48,-0.142
1627.49,-0.14229
1627.5,-0.14231
1627.51,-0.14242
1627.52,-0.14262
1627.53,-0.1427
1627.54,-0.14296
1627.55,-0.14261
1627.56,-0.14188
1627.57,-0.1426
1627.58,-0.14248
1627.59,-0.14232
1627.6,-0.14308
1627.61,-0.1429
1627.62,-0.143
1627.63,-0.14318
1627.64,-0.14319
1627.65,-0.1431
1627.66,-0.14323
1627.67,-0.14287
1627.68,-0.14294
1627.69,-0.1425
1627.7,-0.14261
1627.71,-0.14253
1627.72,-0.14265
1627.73,-0.14296
1627.74,-0.14359
1627.75,-0.14324
1627.76,-0.14355
1627.77,-0.1435
1627.78,-0.14334
1627.79,-0.14333
1627.8,-0.14323
1627.81,-0.14328
1627.82,-0.14376
1627.83,-0.14402
1627.84,-0.14348
1627.85,-0.14424
1627.86,-0.14417
1627.87,-0.14448
1627.88,-0.14433
1627.89,-0.14427
1627.9,-0.14358
1627.91,-0.14407
1627.92,-0.14428
1627.93,-0.1452
1627.94,-0.14505
1627.95,-0.14588
1627.96,-0.14484
1627.97,-0.14611
1627.98,-0.1523
1627.99,-0.16932
1628,-0.20036
1628.01,-0.24837
1628.02,-0.31903
1628.03,-0.40784
1628.04,-0.49397
1628.05,-0.56973
1628.06,-0.61
1628.07,-0.61338
1628.08,-0.57773
1628.09,-0.51671
1628.1,-0.4391
1628.11,-0.35977
1628.12,-0.28599
1628.13,-0.22851
1628.14,-0.18833
1628.15,-0.16589
1628.16,-0.15331
1628.17,-0.1484
1628.18,-0.14665
1628.19,-0.1458
1628.2,-0.14547
1628.21,-0.14563
1628.22,-0.14513
1628.23,-0.14476
1628.24,-0.14477
1628.25,-0.14459
1628.26,-0.1449
1628.27,-0.14468
1628.28,-0.14508
1628.29,-0.14486
1628.3,-0.14534
1628.31,-0.14564
1628.32,-0.14564
1628.33,-0.14566
1628.34,-0.14532
1628.35,-0.14539
1628.36,-0.14473
1628.37,-0.14482
1628.38,-0.14485
1628.39,-0.14476
1628.4,-0.14465
1628.41,-0.14483
1628.42,-0.14499
1628.43,-0.14514
1628.44,-0.14459
1628.45,-0.14467
1628.46,-0.14436
1628.47,-0.14409
1628.48,-0.1442
1628.49,-0.14374
1628.5,-0.14403
1628.51,-0.14381
1628.52,-0.14374
1628.53,-0.14382
1628.54,-0.14347
1628.55,-0.14361
1628.56,-0.14346
1628.57,-0.1428
1628.58,-0.14341
1628.59,-0.14275
1628.6,-0.14271
1628.61,-0.14328
1628.62,-0.14314
1628.63,-0.14324
1628.64,-0.14321
1628.65,-0.14342
1628.66,-0.14364
1628.67,-0.14336
1628.68,-0.14334
1628.69,-0.1433
1628.7,-0.14329
1628.71,-0.1433
1628.72,-0.14303
1628.73,-0.14348
1628.74,-0.14256
1628.75,-0.14463
1628.76,-0.143
1628.77,-0.14341
1628.78,-0.14352
1628.79,-0.14344
1628.8,-0.14318
1628.81,-0.14343
1628.82,-0.14345
1628.83,-0.14354
1628.84,-0.14327
1628.85,-0.14351
1628.86,-0.1435
1628.87,-0.144
1628.88,-0.14403
1628.89,-0.14378
1628.9,-0.14371
1628.91,-0.14349
1628.92,-0.14373
1628.93,-0.144
1628.94,-0.1442
1628.95,-0.1442
1628.96,-0.14461
1628.97,-0.14503
1628.98,-0.14496
1628.99,-0.1455
1629,-0.14553
1629.01,-0.14552
1629.02,-0.14576
1629.03,-0.14583
1629.04,-0.14591
1629.05,-0.14583
1629.06,-0.14621
1629.07,-0.14598
1629.08,-0.14677
1629.09,-0.14622
1629.1,-0.14699
1629.11,-0.14617
1629.12,-0.14639
1629.13,-0.14641
1629.14,-0.14621
1629.15,-0.14607
1629.16,-0.14597
1629.17,-0.14588
1629.18,-0.14614
1629.19,-0.14677
1629.2,-0.1465
1629.21,-0.1473
1629.22,-0.14621
1629.23,-0.14745
1629.24,-0.14671
1629.25,-0.14737
1629.26,-0.14713
1629.27,-0.14763
1629.28,-0.14764
1629.29,-0.14747
1629.3,-0.14794
1629.31,-0.14776
1629.32,-0.1482
1629.33,-0.14781
1629.34,-0.14764
1629.35,-0.14725
1629.36,-0.14641
1629.37,-0.14726
1629.38,-0.1467
1629.39,-0.14716
1629.4,-0.1468
1629.41,-0.14712
1629.42,-0.14715
1629.43,-0.14743
1629.44,-0.14775
1629.45,-0.14729
1629.46,-0.1477
1629.47,-0.14678
1629.48,-0.14793
1629.49,-0.14786
1629.5,-0.14742
1629.51,-0.14794
1629.52,-0.14827
1629.53,-0.14796
1629.54,-0.14819
1629.55,-0.14833
1629.56,-0.14811
1629.57,-0.14841
1629.58,-0.14831
1629.59,-0.14814
1629.6,-0.1478
1629.61,-0.14793
1629.62,-0.14791
1629.63,-0.14754
1629.64,-0.1481
1629.65,-0.14747
1629.66,-0.14783
1629.67,-0.14741
1629.68,-0.14727
1629.69,-0.14689
1629.7,-0.14593
1629.71,-0.14612
1629.72,-0.14602
1629.73,-0.14611
1629.74,-0.14548
1629.75,-0.14647
1629.76,-0.14615
1629.77,-0.1461
1629.78,-0.14633
1629.79,-0.1457
1629.8,-0.14549
1629.81,-0.14509
1629.82,-0.14585
1629.83,-0.14519
1629.84,-0.14549
1629.85,-0.1457
1629.86,-0.14587
1629.87,-0.14556
1629.88,-0.14543
1629.89,-0.14544
1629.9,-0.145
1629.91,-0.14498
1629.92,-0.14461
1629.93,-0.14444
1629.94,-0.14409
1629.95,-0.14425
1629.96,-0.14409
1629.97,-0.14431
1629.98,-0.14418
1629.99,-0.1446
1630,-0.1448
1630.01,-0.14423
1630.02,-0.14442
1630.03,-0.14425
1630.04,-0.14434
1630.05,-0.14402
1630.06,-0.14416
1630.07,-0.14495
1630.08,-0.14483
1630.09,-0.14487
1630.1,-0.1452
1630.11,-0.14546
1630.12,-0.14574
1630.13,-0.14593
1630.14,-0.14544
1630.15,-0.14564
1630.16,-0.14575
1630.17,-0.14515
1630.18,-0.1457
1630.19,-0.1455
1630.2,-0.14497
1630.21,-0.1455
1630.22,-0.14561
1630.23,-0.14589
1630.24,-0.1451
1630.25,-0.14537
1630.26,-0.14538
1630.27,-0.14476
1630.28,-0.14526
1630.29,-0.14526
1630.3,-0.14552
1630.31,-0.1463
1630.32,-0.1466
1630.33,-0.1471
1630.34,-0.14746
1630.35,-0.14915
1630.36,-0.14935
1630.37,-0.14877
1630.38,-0.14798
1630.39,-0.1538
1630.4,-0.17344
1630.41,-0.21902
1630.42,-0.31108
1630.43,-0.44354
1630.44,-0.61257
1630.45,-0.79214
1630.46,-0.94484
1630.47,-1.05217
1630.48,-1.08643
1630.49,-1.05019
1630.5,-0.95953
1630.51,-0.82835
1630.52,-0.67016
1630.53,-0.50947
1630.54,-0.37714
1630.55,-0.27792
1630.56,-0.21583
1630.57,-0.18046
1630.58,-0.16309
1630.59,-0.15516
1630.6,-0.15156
1630.61,-0.15059
1630.62,-0.15073
1630.63,-0.14986
1630.64,-0.14955
1630.65,-0.14958
1630.66,-0.15005
1630.67,-0.14913
1630.68,-0.14902
1630.69,-0.14828
1630.7,-0.14828
1630.71,-0.14809
1630.72,-0.14788
1630.73,-0.14748
1630.74,-0.14807
1630.75,-0.14759
1630.76,-0.14817
1630.77,-0.14807
1630.78,-0.14811
1630.79,-0.1486
1630.8,-0.14902
1630.81,-0.1488
1630.82,-0.14833
1630.83,-0.14876
1630.84,-0.14907
1630.85,-0.14926
1630.86,-0.14952
1630.87,-0.14995
1630.88,-0.14989
1630.89,-0.14917
1630.9,-0.14929
1630.91,-0.1489
1630.92,-0.14821
1630.93,-0.14866
1630.94,-0.14871
1630.95,-0.14813
1630.96,-0.14844
1630.97,-0.14875
1630.98,-0.14949
1630.99,-0.14919
1631,-0.15003
1631.01,-0.14965
1631.02,-0.14986
1631.03,-0.14922
1631.04,-0.1483
1631.05,-0.14781
1631.06,-0.14771
1631.07,-0.14727
1631.08,-0.14665
1631.09,-0.14691
1631.1,-0.14705
1631.11,-0.14654
1631.12,-0.14623
1631.13,-0.14614
1631.14,-0.14631
1631.15,-0.14588
1631.16,-0.14602
1631.17,-0.14604
1631.18,-0.1459
1631.19,-0.14613
1631.2,-0.14714
1631.21,-0.14732
1631.22,-0.14743
1631.23,-0.14771
1631.24,-0.14833
1631.25,-0.14801
1631.26,-0.148
1631.27,-0.14818
1631.28,-0.14806
1631.29,-0.14849
1631.3,-0.1489
1631.31,-0.14834
1631.32,-0.14886
1631.33,-0.14852
1631.34,-0.14862
1631.35,-0.14797
1631.36,-0.14745
1631.37,-0.14675
1631.38,-0.14643
1631.39,-0.14571
1631.4,-0.1457
1631.41,-0.14566
1631.42,-0.14594
1631.43,-0.14583
1631.44,-0.14608
1631.45,-0.14574
1631.46,-0.14629
1631.47,-0.14588
1631.48,-0.14572
1631.49,-0.14619
1631.5,-0.14512
1631.51,-0.14641
1631.52,-0.14614
1631.53,-0.14673
1631.54,-0.14732
1631.55,-0.14767
1631.56,-0.14792
1631.57,-0.14944
1631.58,-0.14917
1631.59,-0.14916
1631.6,-0.14983
1631.61,-0.14925
1631.62,-0.14946
1631.63,-0.14922
1631.64,-0.14876
1631.65,-0.14837
1631.66,-0.14812
1631.67,-0.14798
1631.68,-0.14746
1631.69,-0.14744
1631.7,-0.14652
1631.71,-0.14667
1631.72,-0.14635
1631.73,-0.1465
1631.74,-0.14791
1631.75,-0.14699
1631.76,-0.14627
1631.77,-0.1479
1631.78,-0.14812
1631.79,-0.14868
1631.8,-0.14919
1631.81,-0.14886
1631.82,-0.14983
1631.83,-0.14988
1631.84,-0.14965
1631.85,-0.15022
1631.86,-0.14969
1631.87,-0.1498
1631.88,-0.14985
1631.89,-0.14883
1631.9,-0.14832
1631.91,-0.14878
1631.92,-0.14773
1631.93,-0.14781
1631.94,-0.14739
1631.95,-0.14735
1631.96,-0.14825
1631.97,-0.14776
1631.98,-0.14866
1631.99,-0.14884
1632,-0.14909
1632.01,-0.14955
1632.02,-0.14977
1632.03,-0.14972
1632.04,-0.14974
1632.05,-0.14985
1632.06,-0.14984
1632.07,-0.14915
1632.08,-0.15021
1632.09,-0.14956
1632.1,-0.15021
1632.11,-0.15057
1632.12,-0.15115
1632.13,-0.15091
1632.14,-0.15034
1632.15,-0.1503
1632.16,-0.15002
1632.17,-0.14935
1632.18,-0.14909
1632.19,-0.14905
1632.2,-0.14851
1632.21,-0.14891
1632.22,-0.14865
1632.23,-0.14865
1632.24,-0.14936
1632.25,-0.148
1632.26,-0.14803
1632.27,-0.14832
1632.28,-0.14764
1632.29,-0.14806
1632.3,-0.14828
1632.31,-0.14845
1632.32,-0.14773
1632.33,-0.14902
1632.34,-0.14861
1632.35,-0.14884
1632.36,-0.14873
1632.37,-0.14849
1632.38,-0.14803
1632.39,-0.14864
1632.4,-0.14925
1632.41,-0.14845
1632.42,-0.14919
1632.43,-0.14919
1632.44,-0.14925
1632.45,-0.14908
1632.46,-0.14909
1632.47,-0.14836
1632.48,-0.14807
1632.49,-0.14792
1632.5,-0.14803
1632.51,-0.14755
1632.52,-0.14797
1632.53,-0.14766
1632.54,-0.14829
1632.55,-0.14781
1632.56,-0.14887
1632.57,-0.1479
1632.58,-0.14844
1632.59,-0.14831
1632.6,-0.14811
1632.61,-0.14852
1632.62,-0.14832
1632.63,-0.14852
1632.64,-0.14952
1632.65,-0.14911
1632.66,-0.14899
1632.67,-0.14928
1632.68,-0.14945
1632.69,-0.14962
1632.7,-0.14921
1632.71,-0.15012
1632.72,-0.14999
1632.73,-0.14984
1632.74,-0.14932
1632.75,-0.14937
1632.76,-0.15771
1632.77,-0.18438
1632.78,-0.23714
1632.79,-0.32913
1632.8,-0.44874
1632.81,-0.59866
1632.82,-0.73945
1632.83,-0.8483
1632.84,-0.91125
1632.85,-0.92598
1632.86,-0.87679
1632.87,-0.776
1632.88,-0.65379
1632.89,-0.52477
1632.9,-0.40661
1632.91,-0.30807
1632.92,-0.23371
1632.93,-0.19028
1632.94,-0.1669
1632.95,-0.15626
1632.96,-0.1514
1632.97,-0.15007
1632.98,-0.14939
1632.99,-0.1493
1633,-0.14929
1633.01,-0.1493
1633.02,-0.14907
1633.03,-0.14863
1633.04,-0.14889
1633.05,-0.14844
1633.06,-0.1487
1633.07,-0.14833
1633.08,-0.14968
1633.09,-0.15051
1633.1,-0.15025
1633.11,-0.15009
1633.12,-0.15059
1633.13,-0.15125
1633.14,-0.15065
1633.15,-0.15033
1633.16,-0.15041
1633.17,-0.1501
1633.18,-0.15006
1633.19,-0.15025
1633.2,-0.15005
1633.21,-0.1504
1633.22,-0.15073
1633.23,-0.1512
1633.24,-0.15209
1633.25,-0.15075
1633.26,-0.1523
1633.27,-0.15144
1633.28,-0.15157
1633.29,-0.15123
1633.3,-0.1511
1633.31,-0.15056
1633.32,-0.15099
1633.33,-0.15073
1633.34,-0.15037
1633.35,-0.1496
1633.36,-0.15012
1633.37,-0.14951
1633.38,-0.14901
1633.39,-0.14876
1633.4,-0.1491
1633.41,-0.14947
1633.42,-0.14982
1633.43,-0.14981
1633.44,-0.15031
1633.45,-0.1502
1633.46,-0.15064
1633.47,-0.15086
1633.48,-0.15094
1633.49,-0.1514
1633.5,-0.15154
1633.51,-0.15184
1633.52,-0.15207
1633.53,-0.15258
1633.54,-0.15272
1633.55,-0.1532
1633.56,-0.15289
1633.57,-0.15328
1633.58,-0.15345
1633.59,-0.15336
1633.6,-0.15301
1633.61,-0.15241
1633.62,-0.15207
1633.63,-0.15177
1633.64,-0.15116
1633.65,-0.15116
1633.66,-0.15123
1633.67,-0.15084
1633.68,-0.15086
1633.69,-0.15032
1633.7,-0.15054
1633.71,-0.14997
1633.72,-0.15043
1633.73,-0.14954
1633.74,-0.14974
1633.75,-0.15006
1633.76,-0.15028
1633.77,-0.15023
1633.78,-0.15055
1633.79,-0.15099
1633.8,-0.15102
1633.81,-0.15127
1633.82,-0.15121
1633.83,-0.15197
1633.84,-0.15196
1633.85,-0.15298
1633.86,-0.15345
1633.87,-0.15319
1633.88,-0.15363
1633.89,-0.153
1633.9,-0.15328
1633.91,-0.15266
1633.92,-0.15154
1633.93,-0.15121
1633.94,-0.15026
1633.95,-0.15025
1633.96,-0.14934
1633.97,-0.14981
1633.98,-0.14971
1633.99,-0.14991
1634,-0.1499
1634.01,-0.1496
1634.02,-0.14967
1634.03,-0.15009
1634.04,-0.15004
1634.05,-0.14998
1634.06,-0.15057
1634.07,-0.15132
1634.08,-0.15148
1634.09,-0.15205
1634.1,-0.15238
1634.11,-0.15233
1634.12,-0.15192
1634.13,-0.15211
1634.14,-0.15132
1634.15,-0.15119
1634.16,-0.15053
1634.17,-0.14952
1634.18,-0.14935
1634.19,-0.14944
1634.2,-0.14939
1634.21,-0.14959
1634.22,-0.14971
1634.23,-0.15007
1634.24,-0.14964
1634.25,-0.15061
1634.26,-0.14869
1634.27,-0.15103
1634.28,-0.14939
1634.29,-0.15035
1634.3,-0.15004
1634.31,-0.15033
1634.32,-0.15029
1634.33,-0.14968
1634.34,-0.15062
1634.35,-0.1501
1634.36,-0.15023
1634.37,-0.1499
1634.38,-0.14992
1634.39,-0.14977
1634.4,-0.15003
1634.41,-0.14906
1634.42,-0.14996
1634.43,-0.14963
1634.44,-0.14962
1634.45,-0.14936
1634.46,-0.14916
1634.47,-0.1494
1634.48,-0.14906
1634.49,-0.14881
1634.5,-0.1486
1634.51,-0.14864
1634.52,-0.14869
1634.53,-0.14839
1634.54,-0.1484
1634.55,-0.14884
1634.56,-0.14854
1634.57,-0.14894
1634.58,-0.1485
1634.59,-0.14889
1634.6,-0.14861
1634.61,-0.14828
1634.62,-0.14862
1634.63,-0.14838
1634.64,-0.14858
1634.65,-0.149
1634.66,-0.14895
1634.67,-0.14924
1634.68,-0.14935
1634.69,-0.14969
1634.7,-0.15004
1634.71,-0.14937
1634.72,-0.14996
1634.73,-0.14888
1634.74,-0.15173
1634.75,-0.14948
1634.76,-0.15004
1634.77,-0.15038
1634.78,-0.15055
1634.79,-0.15059
1634.8,-0.15111
1634.81,-0.15111
1634.82,-0.15063
1634.83,-0.1505
1634.84,-0.15067
1634.85,-0.15014
1634.86,-0.15048
1634.87,-0.15047
1634.88,-0.15103
1634.89,-0.15056
1634.9,-0.15107
1634.91,-0.15129
1634.92,-0.15106
1634.93,-0.15141
1634.94,-0.15104
1634.95,-0.15134
1634.96,-0.15146
1634.97,-0.15124
1634.98,-0.15146
1634.99,-0.15192
1635,-0.15172
1635.01,-0.15254
1635.02,-0.15241
1635.03,-0.15242
1635.04,-0.15241
1635.05,-0.15229
1635.06,-0.15211
1635.07,-0.15209
1635.08,-0.15188
1635.09,-0.15213
1635.1,-0.15212
1635.11,-0.15152
1635.12,-0.15171
1635.13,-0.15218
1635.14,-0.1518
1635.15,-0.15203
1635.16,-0.15133
1635.17,-0.15189
1635.18,-0.15151
1635.19,-0.1511
1635.2,-0.15118
1635.21,-0.15114
1635.22,-0.15136
1635.23,-0.1522
1635.24,-0.15376
1635.25,-0.15586
1635.26,-0.15891
1635.27,-0.15869
1635.28,-0.156
1635.29,-0.15992
1635.3,-0.19773
1635.31,-0.30967
1635.32,-0.51968
1635.33,-0.84935
1635.34,-1.3071
1635.35,-1.84816
1635.36,-2.33672
1635.37,-2.76116
1635.38,-3.0587
1635.39,-3.18687
1635.4,-3.12989
1635.41,-2.9138
1635.42,-2.52717
1635.43,-2.03285
1635.44,-1.53281
1635.45,-1.08089
1635.46,-0.72133
1635.47,-0.47553
1635.48,-0.315
1635.49,-0.22377
1635.5,-0.18115
1635.51,-0.16462
1635.52,-0.15776
1635.53,-0.15488
1635.54,-0.1537
1635.55,-0.15318
1635.56,-0.15206
1635.57,-0.15115
1635.58,-0.15113
1635.59,-0.15018
1635.6,-0.1506
1635.61,-0.1498
1635.62,-0.14966
1635.63,-0.14947
1635.64,-0.14915
1635.65,-0.14989
1635.66,-0.1494
1635.67,-0.15002
1635.68,-0.15009
1635.69,-0.15042
1635.7,-0.15033
1635.71,-0.15038
1635.72,-0.14991
1635.73,-0.1515
1635.74,-0.15223
1635.75,-0.15121
1635.76,-0.15165
1635.77,-0.15147
1635.78,-0.15183
1635.79,-0.1515
1635.8,-0.15161
1635.81,-0.15195
1635.82,-0.15125
1635.83,-0.15129
1635.84,-0.15078
1635.85,-0.15096
1635.86,-0.15117
1635.87,-0.15161
1635.88,-0.15222
1635.89,-0.15267
1635.9,-0.1527
1635.91,-0.15307
1635.92,-0.15281
1635.93,-0.15266
1635.94,-0.15222
1635.95,-0.15163
1635.96,-0.15078
1635.97,-0.15086
1635.98,-0.15087
1635.99,-0.15046
1636,-0.15044
1636.01,-0.15038
1636.02,-0.15064
1636.03,-0.15116
1636.04,-0.15085
1636.05,-0.15103
1636.06,-0.15042
1636.07,-0.15114
1636.08,-0.15061
1636.09,-0.15083
1636.1,-0.15139
1636.11,-0.15195
1636.12,-0.1523
1636.13,-0.15286
1636.14,-0.15314
1636.15,-0.15321
1636.16,-0.15391
1636.17,-0.15355
1636.18,-0.15424
1636.19,-0.15404
1636.2,-0.15423
1636.21,-0.15425
1636.22,-0.1546
1636.23,-0.15514
1636.24,-0.15662
1636.25,-0.15468
1636.26,-0.1544
1636.27,-0.15393
1636.28,-0.15302
1636.29,-0.15301
1636.3,-0.15233
1636.31,-0.15247
1636.32,-0.15185
1636.33,-0.15207
1636.34,-0.15229
1636.35,-0.15201
1636.36,-0.15238
1636.37,-0.15259
1636.38,-0.15233
1636.39,-0.15209
1636.4,-0.15287
1636.41,-0.15245
1636.42,-0.15277
1636.43,-0.15293
1636.44,-0.15298
1636.45,-0.15384
1636.46,-0.15402
1636.47,-0.15507
1636.48,-0.15535
1636.49,-0.15574
1636.5,-0.15548
1636.51,-0.15606
1636.52,-0.1556
1636.53,-0.15532
1636.54,-0.15506
1636.55,-0.15459
1636.56,-0.15373
1636.57,-0.15389
1636.58,-0.15367
1636.59,-0.15293
1636.6,-0.15271
1636.61,-0.15225
1636.62,-0.15195
1636.63,-0.15222
1636.64,-0.15147
1636.65,-0.15215
1636.66,-0.15211
1636.67,-0.15242
1636.68,-0.15297
1636.69,-0.15342
1636.7,-0.15412
1636.71,-0.15446
1636.72,-0.15528
1636.73,-0.15494
1636.74,-0.1551
1636.75,-0.15497
1636.76,-0.15446
1636.77,-0.15424
1636.78,-0.15422
1636.79,-0.1533
1636.8,-0.15274
1636.81,-0.1528
1636.82,-0.15241
1636.83,-0.15218
1636.84,-0.15124
1636.85,-0.15156
1636.86,-0.15111
1636.87,-0.15144
1636.88,-0.15138
1636.89,-0.15183
1636.9,-0.15183
1636.91,-0.1527
1636.92,-0.15296
1636.93,-0.1535
1636.94,-0.15316
1636.95,-0.15329
1636.96,-0.15281
1636.97,-0.15323
1636.98,-0.1527
1636.99,-0.15304
1637,-0.15296
1637.01,-0.15328
1637.02,-0.15399
1637.03,-0.15407
1637.04,-0.15426
1637.05,-0.15466
1637.06,-0.15434
1637.07,-0.15375
1637.08,-0.15309
1637.09,-0.15286
1637.1,-0.1523
1637.11,-0.15241
1637.12,-0.15152
1637.13,-0.15185
1637.14,-0.15158
1637.15,-0.15158
1637.16,-0.15151
1637.17,-0.15135
1637.18,-0.151
1637.19,-0.15021
1637.2,-0.15064
1637.21,-0.1512
1637.22,-0.15085
1637.23,-0.15109
1637.24,-0.1525
1637.25,-0.1513
1637.26,-0.15192
1637.27,-0.15248
1637.28,-0.15262
1637.29,-0.15243
1637.3,-0.15289
1637.31,-0.15285
1637.32,-0.15237
1637.33,-0.15289
1637.34,-0.15277
1637.35,-0.15365
1637.36,-0.15289
1637.37,-0.15282
1637.38,-0.15249
1637.39,-0.15221
1637.4,-0.15294
1637.41,-0.15226
1637.42,-0.15268
1637.43,-0.15267
1637.44,-0.15258
1637.45,-0.152
1637.46,-0.15236
1637.47,-0.152
1637.48,-0.15245
1637.49,-0.15498
1637.5,-0.15299
1637.51,-0.15606
1637.52,-0.15731
1637.53,-0.15811
1637.54,-0.15744
1637.55,-0.15955
1637.56,-0.17795
1637.57,-0.22915
1637.58,-0.36859
1637.59,-0.62448
1637.6,-0.99537
1637.61,-1.47298
1637.62,-1.98028
1637.63,-2.42345
1637.64,-2.75457
1637.65,-2.92659
1637.66,-2.93869
1637.67,-2.78738
1637.68,-2.50397
1637.69,-2.10226
1637.7,-1.63291
1637.71,-1.21675
1637.72,-0.83716
1637.73,-0.54593
1637.74,-0.34611
1637.75,-0.24449
1637.76,-0.19246
1637.77,-0.16946
1637.78,-0.16068
1637.79,-0.15753
1637.8,-0.15611
1637.81,-0.15596
1637.82,-0.15527
1637.83,-0.15491
1637.84,-0.15503
1637.85,-0.15452
1637.86,-0.15425
1637.87,-0.15451
1637.88,-0.1543
1637.89,-0.15401
1637.9,-0.15397
1637.91,-0.15345
1637.92,-0.15405
1637.93,-0.15316
1637.94,-0.15288
1637.95,-0.15299
1637.96,-0.1525
1637.97,-0.15269
1637.98,-0.15233
1637.99,-0.15216
1638,-0.15302
1638.01,-0.15297
1638.02,-0.15338
1638.03,-0.15406
1638.04,-0.15511
1638.05,-0.15483
1638.06,-0.15578
1638.07,-0.156
1638.08,-0.15579
1638.09,-0.15538
1638.1,-0.15516
1638.11,-0.15506
1638.12,-0.15472
1638.13,-0.15441
1638.14,-0.15343
1638.15,-0.15341
1638.16,-0.15304
1638.17,-0.15271
1638.18,-0.15229
1638.19,-0.15196
1638.2,-0.15207
1638.21,-0.15221
1638.22,-0.15213
1638.23,-0.15229
1638.24,-0.15198
1638.25,-0.15302
1638.26,-0.15326
1638.27,-0.15398
1638.28,-0.15429
1638.29,-0.15458
1638.3,-0.1546
1638.31,-0.15517
1638.32,-0.15601
1638.33,-0.15611
1638.34,-0.15648
1638.35,-0.15683
1638.36,-0.15629
1638.37,-0.15675
1638.38,-0.15607
1638.39,-0.1561
1638.4,-0.15532
1638.41,-0.15604
1638.42,-0.15591
1638.43,-0.15598
1638.44,-0.15769
1638.45,-0.15778
1638.46,-0.15811
1638.47,-0.15924
1638.48,-0.1595
1638.49,-0.15999
1638.5,-0.16026
1638.51,-0.16089
1638.52,-0.16007
1638.53,-0.15989
1638.54,-0.15798
1638.55,-0.15705
1638.56,-0.15536
1638.57,-0.15457
1638.58,-0.15435
1638.59,-0.15415
1638.6,-0.15403
1638.61,-0.15394
1638.62,-0.15368
1638.63,-0.15415
1638.64,-0.15339
1638.65,-0.15385
1638.66,-0.1542
1638.67,-0.15463
1638.68,-0.1548
1638.69,-0.15602
1638.7,-0.15636
1638.71,-0.15708
1638.72,-0.15764
1638.73,-0.15755
1638.74,-0.15792
1638.75,-0.15801
1638.76,-0.15786
1638.77,-0.15901
1638.78,-0.15904
1638.79,-0.15885
1638.8,-0.15965
1638.81,-0.15894
1638.82,-0.1588
1638.83,-0.15731
1638.84,-0.15708
1638.85,-0.15536
1638.86,-0.15465
1638.87,-0.15342
1638.88,-0.1529
1638.89,-0.15325
1638.9,-0.15287
1638.91,-0.15266
1638.92,-0.15288
1638.93,-0.15285
1638.94,-0.15268
1638.95,-0.15316
1638.96,-0.15272
1638.97,-0.15289
1638.98,-0.15277
1638.99,-0.15297
1639,-0.15386
1639.01,-0.15424
1639.02,-0.15508
1639.03,-0.15604
1639.04,-0.15715
1639.05,-0.15853
1639.06,-0.15882
1639.07,-0.15994
1639.08,-0.15944
1639.09,-0.15961
1639.1,-0.15895
1639.11,-0.15779
1639.12,-0.15719
1639.13,-0.15596
1639.14,-0.15509
1639.15,-0.15454
1639.16,-0.15373
1639.17,-0.15356
1639.18,-0.15233
1639.19,-0.15225
1639.2,-0.15195
1639.21,-0.15189
1639.22,-0.1518
1639.23,-0.15319
1639.24,-0.15147
1639.25,-0.15314
1639.26,-0.15381
1639.27,-0.15519
1639.28,-0.15581
1639.29,-0.15699
1639.3,-0.15735
1639.31,-0.15827
1639.32,-0.15805
1639.33,-0.1581
1639.34,-0.15673
1639.35,-0.1568
1639.36,-0.1562
1639.37,-0.15521
1639.38,-0.15444
1639.39,-0.1536
1639.4,-0.15356
1639.41,-0.15238
1639.42,-0.15256
1639.43,-0.15272
1639.44,-0.1524
1639.45,-0.15305
1639.46,-0.15337
1639.47,-0.15405
1639.48,-0.1545
1639.49,-0.15535
1639.5,-0.15615
1639.51,-0.15637
1639.52,-0.15658
1639.53,-0.15617
1639.54,-0.156
1639.55,-0.15582
1639.56,-0.1552
1639.57,-0.15537
1639.58,-0.15605
1639.59,-0.15659
1639.6,-0.15716
1639.61,-0.15763
1639.62,-0.15808
1639.63,-0.15761
1639.64,-0.15723
1639.65,-0.15761
1639.66,-0.15682
1639.67,-0.15672
1639.68,-0.15674
1639.69,-0.15602
1639.7,-0.15627
1639.71,-0.15626
1639.72,-0.15565
1639.73,-0.15555
1639.74,-0.15522
1639.75,-0.15479
1639.76,-0.15523
1639.77,-0.15406
1639.78,-0.15419
1639.79,-0.15453
1639.8,-0.15461
1639.81,-0.15451
1639.82,-0.15471
1639.83,-0.1549
1639.84,-0.1547
1639.85,-0.15433
1639.86,-0.15454
1639.87,-0.15512
1639.88,-0.15502
1639.89,-0.15479
1639.9,-0.15528
1639.91,-0.15584
1639.92,-0.15617
1639.93,-0.15609
1639.94,-0.15711
1639.95,-0.15691
1639.96,-0.15719
1639.97,-0.15617
1639.98,-0.15618
1639.99,-0.15541
1640,-0.15531
1640.01,-0.15622
1640.02,-0.15448
1640.03,-0.15471
1640.04,-0.1553
1640.05,-0.15517
1640.06,-0.15554
1640.07,-0.15547
1640.08,-0.15561
1640.09,-0.15457
1640.1,-0.15429
1640.11,-0.15506
1640.12,-0.15478
1640.13,-0.15509
1640.14,-0.15622
1640.15,-0.15797
1640.16,-0.1604
1640.17,-0.16239
1640.18,-0.16248
1640.19,-0.16039
1640.2,-0.16592
1640.21,-0.20108
1640.22,-0.30025
1640.23,-0.50302
1640.24,-0.85727
1640.25,-1.32743
1640.26,-1.86267
1640.27,-2.38316
1640.28,-2.77698
1640.29,-3.03123
1640.3,-3.11184
1640.31,-3.03448
1640.32,-2.79292
1640.33,-2.421
1640.34,-1.97146
1640.35,-1.50745
1640.36,-1.063
1640.37,-0.70726
1640.38,-0.44594
1640.39,-0.29219
1640.4,-0.21587
1640.41,-0.18099
1640.42,-0.16742
1640.43,-0.16188
1640.44,-0.15945
1640.45,-0.15891
1640.46,-0.15828
1640.47,-0.15791
1640.48,-0.15826
1640.49,-0.1562
1640.5,-0.15795
1640.51,-0.15698
1640.52,-0.15637
1640.53,-0.15598
1640.54,-0.1551
1640.55,-0.15505
1640.56,-0.15411
1640.57,-0.15459
1640.58,-0.15401
1640.59,-0.15448
1640.6,-0.15457
1640.61,-0.15421
1640.62,-0.15709
1640.63,-0.15519
1640.64,-0.15719
1640.65,-0.15584
1640.66,-0.15757
1640.67,-0.15796
1640.68,-0.15918
1640.69,-0.16016
1640.7,-0.16034
1640.71,-0.16109
1640.72,-0.16026
1640.73,-0.16026
1640.74,-0.15913
1640.75,-0.15834
1640.76,-0.15693
1640.77,-0.15636
1640.78,-0.15559
1640.79,-0.15557
1640.8,-0.15552
1640.81,-0.15548
1640.82,-0.15561
1640.83,-0.15557
1640.84,-0.15522
1640.85,-0.15534
1640.86,-0.15492
1640.87,-0.15554
1640.88,-0.15572
1640.89,-0.15609
1640.9,-0.15638
1640.91,-0.15713
1640.92,-0.15847
1640.93,-0.15894
1640.94,-0.15902
1640.95,-0.16006
1640.96,-0.16064
1640.97,-0.16062
1640.98,-0.16014
1640.99,-0.16014
1641,-0.15959
1641.01,-0.15916
1641.02,-0.15944
1641.03,-0.15949
1641.04,-0.16024
1641.05,-0.16111
1641.06,-0.16193
1641.07,-0.16399
1641.08,-0.16329
1641.09,-0.16315
1641.1,-0.1656
1641.11,-0.16397
1641.12,-0.16369
1641.13,-0.16276
1641.14,-0.16212
1641.15,-0.1613
1641.16,-0.16004
1641.17,-0.15929
1641.18,-0.159
1641.19,-0.15747
1641.2,-0.15767
1641.21,-0.15674
1641.22,-0.1564
1641.23,-0.15659
1641.24,-0.15671
1641.25,-0.15659
1641.26,-0.15745
1641.27,-0.1563
1641.28,-0.15786
1641.29,-0.15789
1641.3,-0.15854
1641.31,-0.15925
1641.32,-0.15919
1641.33,-0.16074
1641.34,-0.16087
1641.35,-0.162
1641.36,-0.16199
1641.37,-0.16375
1641.38,-0.16341
1641.39,-0.16411
1641.4,-0.16458
1641.41,-0.16497
1641.42,-0.16501
1641.43,-0.16453
1641.44,-0.16342
1641.45,-0.16227
1641.46,-0.16121
1641.47,-0.15961
1641.48,-0.15821
1641.49,-0.15779
1641.5,-0.15671
1641.51,-0.15567
1641.52,-0.15548
1641.53,-0.15481
1641.54,-0.15433
1641.55,-0.15433
1641.56,-0.15389
1641.57,-0.15478
1641.58,-0.15297
1641.59,-0.15488
1641.6,-0.15422
1641.61,-0.15511
1641.62,-0.15517
1641.63,-0.15551
1641.64,-0.15621
1641.65,-0.15703
1641.66,-0.15805
1641.67,-0.15965
1641.68,-0.1609
1641.69,-0.16246
1641.7,-0.16393
1641.71,-0.16439
1641.72,-0.16465
1641.73,-0.16487
1641.74,-0.16271
1641.75,-0.16262
1641.76,-0.16012
1641.77,-0.15838
1641.78,-0.15731
1641.79,-0.15651
1641.8,-0.15603
1641.81,-0.15477
1641.82,-0.1548
1641.83,-0.15533
1641.84,-0.15471
1641.85,-0.15514
1641.86,-0.15451
1641.87,-0.1548
1641.88,-0.15565
1641.89,-0.15578
1641.9,-0.15781
1641.91,-0.1573
1641.92,-0.16038
1641.93,-0.16158
1641.94,-0.1618
1641.95,-0.16273
1641.96,-0.16276
1641.97,-0.1619
1641.98,-0.16096
1641.99,-0.15958
1642,-0.15815
1642.01,-0.15693
1642.02,-0.15644
1642.03,-0.15602
1642.04,-0.156
1642.05,-0.15637
1642.06,-0.15554
1642.07,-0.15679
1642.08,-0.15608
1642.09,-0.15688
1642.1,-0.15763
1642.11,-0.15713
1642.12,-0.15854
1642.13,-0.15916
1642.14,-0.16011
1642.15,-0.16028
1642.16,-0.16058
1642.17,-0.16042
1642.18,-0.16016
1642.19,-0.15927
1642.2,-0.15906
1642.21,-0.15939
1642.22,-0.15896
1642.23,-0.1585
1642.24,-0.16144
1642.25,-0.15974
1642.26,-0.16094
1642.27,-0.15973
1642.28,-0.16061
1642.29,-0.15968
1642.3,-0.15921
1642.31,-0.15882
1642.32,-0.1577
1642.33,-0.15772
1642.34,-0.1577
1642.35,-0.15772
1642.36,-0.15791
1642.37,-0.15828
1642.38,-0.15838
1642.39,-0.15819
1642.4,-0.1579
1642.41,-0.15795
1642.42,-0.15778
1642.43,-0.15743
1642.44,-0.15661
1642.45,-0.15674
1642.46,-0.15683
1642.47,-0.15705
1642.48,-0.15593
1642.49,-0.15757
1642.5,-0.15663
1642.51,-0.15663
1642.52,-0.15715
1642.53,-0.15724
1642.54,-0.15621
1642.55,-0.15649
1642.56,-0.15658
1642.57,-0.15671
1642.58,-0.15689
1642.59,-0.1567
1642.6,-0.15746
1642.61,-0.15795
1642.62,-0.15813
1642.63,-0.15894
1642.64,-0.159
1642.65,-0.15874
1642.66,-0.15764
1642.67,-0.15692
1642.68,-0.15614
1642.69,-0.15631
1642.7,-0.15704
1642.71,-0.15773
1642.72,-0.16082
1642.73,-0.16585
1642.74,-0.16608
1642.75,-0.16433
1642.76,-0.16317
1642.77,-0.19211
1642.78,-0.30039
1642.79,-0.52825
1642.8,-0.95431
1642.81,-1.60917
1642.82,-2.37249
1642.83,-3.1687
1642.84,-3.90889
1642.85,-4.51279
1642.86,-4.90621
1642.87,-5.07177
1642.88,-4.9702
1642.89,-4.60986
1642.9,-4.08329
1642.91,-3.39598
1642.92,-2.63934
1642.93,-1.95299
1642.94,-1.30438
1642.95,-0.81888
1642.96,-0.51184
1642.97,-0.33156
1642.98,-0.23339
1642.99,-0.18783
1643,-0.17091
1643.01,-0.16433
1643.02,-0.16116
1643.03,-0.15916
1643.04,-0.15804
1643.05,-0.15741
1643.06,-0.15655
1643.07,-0.15672
1643.08,-0.157
1643.09,-0.15679
1643.1,-0.15701
1643.11,-0.15688
1643.12,-0.15692
1643.13,-0.15765
1643.14,-0.15844
1643.15,-0.15854
1643.16,-0.15902
1643.17,-0.15836
1643.18,-0.15832
1643.19,-0.15834
1643.2,-0.15804
1643.21,-0.15723
1643.22,-0.15693
1643.23,-0.15645
1643.24,-0.15603
1643.25,-0.15727
1643.26,-0.15598
1643.27,-0.1564
1643.28,-0.15685
1643.29,-0.15672
1643.3,-0.15717
1643.31,-0.15713
1643.32,-0.1577
1643.33,-0.15864
1643.34,-0.15896
1643.35,-0.15884
1643.36,-0.16
1643.37,-0.16128
1643.38,-0.16133
1643.39,-0.16137
1643.4,-0.16155
1643.41,-0.16128
1643.42,-0.16029
1643.43,-0.15986
1643.44,-0.15808
1643.45,-0.1582
1643.46,-0.15729
1643.47,-0.157
1643.48,-0.15742
1643.49,-0.15568
1643.5,-0.15696
1643.51,-0.15699
1643.52,-0.15668
1643.53,-0.15663
1643.54,-0.15674
1643.55,-0.15658
1643.56,-0.15703
1643.57,-0.15661
1643.58,-0.15735
1643.59,-0.15764
1643.6,-0.1585
1643.61,-0.15887
1643.62,-0.15916
1643.63,-0.16036
1643.64,-0.16027
1643.65,-0.16094
1643.66,-0.16047
1643.67,-0.1605
1643.68,-0.15978
1643.69,-0.15966
1643.7,-0.15968
1643.71,-0.16006
1643.72,-0.16036
1643.73,-0.16116
1643.74,-0.16185
1643.75,-0.16238
1643.76,-0.16312
1643.77,-0.16389
1643.78,-0.16406
1643.79,-0.16404
1643.8,-0.16368
1643.81,-0.1631
1643.82,-0.1622
1643.83,-0.16188
1643.84,-0.16101
1643.85,-0.16023
1643.86,-0.1592
1643.87,-0.15874
1643.88,-0.15838
1643.89,-0.15726
1643.9,-0.15773
1643.91,-0.15722
1643.92,-0.15748
1643.93,-0.15746
1643.94,-0.15759
1643.95,-0.15808
1643.96,-0.15816
1643.97,-0.15901
1643.98,-0.15918
1643.99,-0.1592
1644,-0.16019
1644.01,-0.16064
1644.02,-0.16126
1644.03,-0.16207
1644.04,-0.16251
1644.05,-0.16325
1644.06,-0.16363
1644.07,-0.16463
1644.08,-0.165
1644.09,-0.1656
1644.1,-0.16581
1644.11,-0.16534
1644.12,-0.16583
1644.13,-0.16447
1644.14,-0.16356
1644.15,-0.16245
1644.16,-0.16173
1644.17,-0.16086
1644.18,-0.15966
1644.19,-0.1594
1644.2,-0.15896
1644.21,-0.15795
1644.22,-0.1577
1644.23,-0.15778
1644.24,-0.1577
1644.25,-0.15681
1644.26,-0.15848
1644.27,-0.15766
1644.28,-0.15813
1644.29,-0.15806
1644.3,-0.15833
1644.31,-0.15917
1644.32,-0.15866
1644.33,-0.15935
1644.34,-0.15995
1644.35,-0.16106
1644.36,-0.16231
1644.37,-0.16346
1644.38,-0.16481
1644.39,-0.16601
1644.4,-0.16754
1644.41,-0.16709
1644.42,-0.16663
1644.43,-0.16587
1644.44,-0.1648
1644.45,-0.16353
1644.46,-0.16218
1644.47,-0.16093
1644.48,-0.15995
1644.49,-0.15996
1644.5,-0.15894
1644.51,-0.15941
1644.52,-0.15899
1644.53,-0.15899
1644.54,-0.1591
1644.55,-0.15834
1644.56,-0.15918
1644.57,-0.15913
1644.58,-0.15934
1644.59,-0.16096
1644.6,-0.16028
1644.61,-0.16333
1644.62,-0.16382
1644.63,-0.16456
1644.64,-0.16483
1644.65,-0.16513
1644.66,-0.16418
1644.67,-0.16281
1644.68,-0.16227
1644.69,-0.16108
1644.7,-0.1604
1644.71,-0.15966
1644.72,-0.15882
1644.73,-0.15813
1644.74,-0.16014
1644.75,-0.15884
1644.76,-0.15867
1644.77,-0.15882
1644.78,-0.15937
1644.79,-0.15877
1644.8,-0.15948
1644.81,-0.1605
1644.82,-0.16057
1644.83,-0.16177
1644.84,-0.16184
1644.85,-0.1619
1644.86,-0.16131
1644.87,-0.16207
1644.88,-0.16083
1644.89,-0.1605
1644.9,-0.1604
1644.91,-0.16048
1644.92,-0.16017
1644.93,-0.16056
1644.94,-0.16093
1644.95,-0.16123
1644.96,-0.16157
1644.97,-0.16148
1644.98,-0.16044
1644.99,-0.1604
1645,-0.15945
1645.01,-0.15941
1645.02,-0.15907
1645.03,-0.15903
1645.04,-0.15884
1645.05,-0.15965
1645.06,-0.15887
1645.07,-0.16096
1645.08,-0.15949
1645.09,-0.16004
1645.1,-0.15958
1645.11,-0.15911
1645.12,-0.15856
1645.13,-0.15862
1645.14,-0.15903
1645.15,-0.15857
1645.16,-0.15848
1645.17,-0.1584
1645.18,-0.15848
1645.19,-0.15799
1645.2,-0.15815
1645.21,-0.1583
1645.22,-0.15787
1645.23,-0.15937
1645.24,-0.15745
1645.25,-0.15931
1645.26,-0.16019
1645.27,-0.16
1645.28,-0.16044
1645.29,-0.16024
1645.3,-0.15983
1645.31,-0.16021
1645.32,-0.16047
1645.33,-0.16067
1645.34,-0.16215
1645.35,-0.16504
1645.36,-0.1698
1645.37,-0.17137
1645.38,-0.16721
1645.39,-0.17061
1645.4,-0.2368
1645.41,-0.44658
1645.42,-0.83177
1645.43,-1.46304
1645.44,-2.36672
1645.45,-3.35483
1645.46,-4.3899
1645.47,-5.29894
1645.48,-5.97863
1645.49,-6.43827
1645.5,-6.59945
1645.51,-6.47675
1645.52,-6.09221
1645.53,-5.49692
1645.54,-4.70712
1645.55,-3.78811
1645.56,-2.85153
1645.57,-1.99744
1645.58,-1.29
1645.59,-0.77892
1645.6,-0.4651
1645.61,-0.29984
1645.62,-0.22275
1645.63,-0.19125
1645.64,-0.17857
1645.65,-0.17253
1645.66,-0.16873
1645.67,-0.16642
1645.68,-0.16325
1645.69,-0.16228
1645.7,-0.16147
1645.71,-0.16081
1645.72,-0.16112
1645.73,-0.1608
1645.74,-0.1603
1645.75,-0.16193
1645.76,-0.16075
1645.77,-0.16099
1645.78,-0.16078
1645.79,-0.16083
1645.8,-0.16072
1645.81,-0.16105
1645.82,-0.1614
1645.83,-0.16173
1645.84,-0.16206
1645.85,-0.16236
1645.86,-0.16307
1645.87,-0.16264
1645.88,-0.16304
1645.89,-0.16274
1645.9,-0.16144
1645.91,-0.16116
1645.92,-0.16051
1645.93,-0.1597
1645.94,-0.16054
1645.95,-0.16024
1645.96,-0.16016
1645.97,-0.16031
1645.98,-0.15989
1645.99,-0.16046
1646,-0.16048
1646.01,-0.16017
1646.02,-0.16067
1646.03,-0.16117
1646.04,-0.16159
1646.05,-0.16231
1646.06,-0.16354
1646.07,-0.16423
1646.08,-0.16476
1646.09,-0.16559
1646.1,-0.16543
1646.11,-0.1647
1646.12,-0.16397
1646.13,-0.16317
1646.14,-0.16264
1646.15,-0.16094
1646.16,-0.16061
1646.17,-0.15946
1646.18,-0.15941
1646.19,-0.15934
1646.2,-0.15903
1646.21,-0.15882
1646.22,-0.15828
1646.23,-0.15884
1646.24,-0.1578
1646.25,-0.15756
1646.26,-0.15903
1646.27,-0.15833
1646.28,-0.15876
1646.29,-0.15911
1646.3,-0.15944
1646.31,-0.16062
1646.32,-0.16057
1646.33,-0.16185
1646.34,-0.16163
1646.35,-0.1621
1646.36,-0.16157
1646.37,-0.1616
1646.38,-0.16183
1646.39,-0.16142
1646.4,-0.16124
1646.41,-0.16143
1646.42,-0.1618
1646.43,-0.16215
1646.44,-0.16244
1646.45,-0.16338
1646.46,-0.16429
1646.47,-0.16485
1646.48,-0.16594
1646.49,-0.1662
1646.5,-0.16635
1646.51,-0.16666
1646.52,-0.16554
1646.53,-0.16487
1646.54,-0.16373
1646.55,-0.16237
1646.56,-0.16163
1646.57,-0.16054
1646.58,-0.15958
1646.59,-0.15933
1646.6,-0.1588
1646.61,-0.15867
1646.62,-0.15882
1646.63,-0.1591
1646.64,-0.15882
1646.65,-0.15935
1646.66,-0.159
1646.67,-0.15968
1646.68,-0.15956
1646.69,-0.16036
1646.7,-0.16073
1646.71,-0.16162
1646.72,-0.1622
1646.73,-0.16242
1646.74,-0.1649
1646.75,-0.16509
1646.76,-0.16561
1646.77,-0.1669
1646.78,-0.16761
1646.79,-0.16741
1646.8,-0.16813
1646.81,-0.16853
1646.82,-0.16784
1646.83,-0.16818
1646.84,-0.16774
1646.85,-0.16599
1646.86,-0.16564
1646.87,-0.16426
1646.88,-0.16276
1646.89,-0.16184
1646.9,-0.16086
1646.91,-0.16046
1646.92,-0.1597
1646.93,-0.15987
1646.94,-0.15928
1646.95,-0.15949
1646.96,-0.15978
1646.97,-0.16018
1646.98,-0.15998
1646.99,-0.1601
1647,-0.15992
1647.01,-0.1604
1647.02,-0.15993
1647.03,-0.16041
1647.04,-0.16082
1647.05,-0.16164
1647.06,-0.16297
1647.07,-0.16421
1647.08,-0.16626
1647.09,-0.16702
1647.1,-0.16863
1647.11,-0.16904
1647.12,-0.1694
1647.13,-0.16935
1647.14,-0.1679
1647.15,-0.16739
1647.16,-0.16537
1647.17,-0.16423
1647.18,-0.1638
1647.19,-0.16236
1647.2,-0.16227
1647.21,-0.1617
1647.22,-0.16198
1647.23,-0.16118
1647.24,-0.16061
1647.25,-0.16071
1647.26,-0.16075
1647.27,-0.16015
1647.28,-0.16072
1647.29,-0.16107
1647.3,-0.16235
1647.31,-0.16352
1647.32,-0.16462
1647.33,-0.16554
1647.34,-0.16653
1647.35,-0.16665
1647.36,-0.16586
1647.37,-0.16575
1647.38,-0.1647
1647.39,-0.16323
1647.4,-0.16271
1647.41,-0.16195
1647.42,-0.16102
1647.43,-0.1612
1647.44,-0.16087
1647.45,-0.16022
1647.46,-0.15975
1647.47,-0.15996
1647.48,-0.15977
1647.49,-0.16012
1647.5,-0.1606
1647.51,-0.16083
1647.52,-0.16202
1647.53,-0.16264
1647.54,-0.16389
1647.55,-0.16347
1647.56,-0.1633
1647.57,-0.16331
1647.58,-0.16235
1647.59,-0.16196
1647.6,-0.16165
1647.61,-0.16158
1647.62,-0.16129
1647.63,-0.16191
1647.64,-0.16234
1647.65,-0.16274
1647.66,-0.16292
1647.67,-0.16284
1647.68,-0.16242
1647.69,-0.16135
1647.7,-0.16084
1647.71,-0.16016
1647.72,-0.15996
1647.73,-0.16034
1647.74,-0.15932
1647.75,-0.1601
1647.76,-0.16029
1647.77,-0.16081
1647.78,-0.16065
1647.79,-0.16063
1647.8,-0.16149
1647.81,-0.16114
1647.82,-0.16117
1647.83,-0.16107
1647.84,-0.16112
1647.85,-0.16103
1647.86,-0.16106
1647.87,-0.16141
1647.88,-0.1614
1647.89,-0.16055
1647.9,-0.16093
1647.91,-0.16051
1647.92,-0.16014
1647.93,-0.16001
1647.94,-0.16068
1647.95,-0.16112
1647.96,-0.16136
1647.97,-0.16153
1647.98,-0.16108
1647.99,-0.16087
1648,-0.16098
1648.01,-0.16135
1648.02,-0.16029
1648.03,-0.16294
1648.04,-0.16473
1648.05,-0.16872
1648.06,-0.1715
1648.07,-0.17001
1648.08,-0.167
1648.09,-0.18176
1648.1,-0.26005
1648.11,-0.48041
1648.12,-0.92691
1648.13,-1.604
1648.14,-2.41497
1648.15,-3.25117
1648.16,-4.11781
1648.17,-4.71572
1648.18,-5.0841
1648.19,-5.23889
1648.2,-5.19304
1648.21,-4.91349
1648.22,-4.4302
1648.23,-3.78628
1648.24,-3.0373
1648.25,-2.23813
1648.26,-1.53255
1648.27,-0.95618
1648.28,-0.58471
1648.29,-0.37375
1648.3,-0.25931
1648.31,-0.20621
1648.32,-0.18645
1648.33,-0.17582
1648.34,-0.17141
1648.35,-0.16966
1648.36,-0.16834
1648.37,-0.1668
1648.38,-0.16592
1648.39,-0.16538
1648.4,-0.16478
1648.41,-0.16459
1648.42,-0.16449
1648.43,-0.164
1648.44,-0.16416
1648.45,-0.16378
1648.46,-0.16351
1648.47,-0.16332
1648.48,-0.16307
1648.49,-0.16248
1648.5,-0.16127
1648.51,-0.16245
1648.52,-0.1622
1648.53,-0.16172
1648.54,-0.16247
1648.55,-0.1631
1648.56,-0.16252
1648.57,-0.163
1648.58,-0.16319
1648.59,-0.16317
1648.6,-0.16317
1648.61,-0.16326
1648.62,-0.16343
1648.63,-0.16398
1648.64,-0.16435
1648.65,-0.16407
1648.66,-0.16421
1648.67,-0.16406
1648.68,-0.16312
1648.69,-0.16306
1648.7,-0.16274
1648.71,-0.16194
1648.72,-0.16152
1648.73,-0.16173
1648.74,-0.16231
1648.75,-0.16151
1648.76,-0.16214
1648.77,-0.16211
1648.78,-0.16319
1648.79,-0.16322
1648.8,-0.16396
1648.81,-0.16392
1648.82,-0.16529
1648.83,-0.16589
1648.84,-0.1661
1648.85,-0.167
1648.86,-0.16739
1648.87,-0.16714
1648.88,-0.16707
1648.89,-0.16622
1648.9,-0.16568
1648.91,-0.16436
1648.92,-0.16357
1648.93,-0.16269
1648.94,-0.16232
1648.95,-0.16181
1648.96,-0.16149
1648.97,-0.16211
1648.98,-0.16136
1648.99,-0.16183
1649,-0.1615
1649.01,-0.1618
1649.02,-0.16097
1649.03,-0.16181
1649.04,-0.16149
1649.05,-0.16149
1649.06,-0.1618
1649.07,-0.16278
1649.08,-0.16316
1649.09,-0.16379
1649.1,-0.16433
1649.11,-0.16504
1649.12,-0.16495
1649.13,-0.16538
1649.14,-0.16447
1649.15,-0.16464
1649.16,-0.1637
1649.17,-0.16385
1649.18,-0.16384
1649.19,-0.16404
1649.2,-0.1648
1649.21,-0.16525
1649.22,-0.16622
1649.23,-0.16785
1649.24,-0.16789
1649.25,-0.16896
1649.26,-0.16951
1649.27,-0.16872
1649.28,-0.16844
1649.29,-0.16779
1649.3,-0.16681
1649.31,-0.16631
1649.32,-0.16509
1649.33,-0.16457
1649.34,-0.16376
1649.35,-0.16331
1649.36,-0.16251
1649.37,-0.16186
1649.38,-0.16192
1649.39,-0.16178
1649.4,-0.16132
1649.41,-0.16148
1649.42,-0.16223
1649.43,-0.16195
1649.44,-0.16288
1649.45,-0.16318
1649.46,-0.16321
1649.47,-0.16372
1649.48,-0.16394
1649.49,-0.16406
1649.5,-0.16457
1649.51,-0.1657
1649.52,-0.16688
1649.53,-0.16722
1649.54,-0.16816
1649.55,-0.16895
1649.56,-0.16979
1649.57,-0.17019
1649.58,-0.17015
1649.59,-0.17031
1649.6,-0.16963
1649.61,-0.16899
1649.62,-0.168
1649.63,-0.16679
1649.64,-0.16573
1649.65,-0.16501
1649.66,-0.16387
1649.67,-0.16342
1649.68,-0.16256
1649.69,-0.16254
1649.7,-0.16137
1649.71,-0.16141
1649.72,-0.16106
1649.73,-0.16113
1649.74,-0.16164
1649.75,-0.16124
1649.76,-0.16087
1649.77,-0.16192
1649.78,-0.16201
1649.79,-0.16176
1649.8,-0.16217
1649.81,-0.16226
1649.82,-0.16321
1649.83,-0.16374
1649.84,-0.1649
1649.85,-0.1661
1649.86,-0.16716
1649.87,-0.16812
1649.88,-0.16909
1649.89,-0.17035
1649.9,-0.16977
1649.91,-0.16893
1649.92,-0.16804
1649.93,-0.16672
1649.94,-0.1651
1649.95,-0.16361
1649.96,-0.16322
1649.97,-0.16338
1649.98,-0.16194
1649.99,-0.16274
1650,-0.16243
1650.01,-0.16263
1650.02,-0.16258
1650.03,-0.16234
1650.04,-0.16248
1650.05,-0.16256
1650.06,-0.16307
1650.07,-0.16343
1650.08,-0.16435
1650.09,-0.16558
1650.1,-0.16631
1650.11,-0.16804
1650.12,-0.16913
1650.13,-0.16839
1650.14,-0.16809
1650.15,-0.16785
1650.16,-0.16528
1650.17,-0.1644
1650.18,-0.16387
1650.19,-0.16314
1650.2,-0.16316
1650.21,-0.16231
1650.22,-0.16173
1650.23,-0.16344
1650.24,-0.16301
1650.25,-0.16173
1650.26,-0.16238
1650.27,-0.16264
1650.28,-0.16339
1650.29,-0.16373
1650.3,-0.16437
1650.31,-0.16512
1650.32,-0.16594
1650.33,-0.1664
1650.34,-0.16594
1650.35,-0.16673
1650.36,-0.16474
1650.37,-0.16539
1650.38,-0.16423
1650.39,-0.16425
1650.4,-0.16393
1650.41,-0.16471
1650.42,-0.16468
1650.43,-0.16495
1650.44,-0.16531
1650.45,-0.16496
1650.46,-0.16432
1650.47,-0.16456
1650.48,-0.16217
1650.49,-0.16212
1650.5,-0.16279
1650.51,-0.16213
1650.52,-0.16068
1650.53,-0.1613
1650.54,-0.16181
1650.55,-0.16205
1650.56,-0.16263
1650.57,-0.16185
1650.58,-0.1623
1650.59,-0.16226
1650.6,-0.1617
1650.61,-0.16281
1650.62,-0.16164
1650.63,-0.16268
1650.64,-0.16153
1650.65,-0.16398
1650.66,-0.16343
1650.67,-0.16404
1650.68,-0.16353
1650.69,-0.16344
1650.7,-0.16308
1650.71,-0.16214
1650.72,-0.16214
1650.73,-0.16203
1650.74,-0.16267
1650.75,-0.16531
1650.76,-0.1694
1650.77,-0.17245
1650.78,-0.17022
1650.79,-0.16862
1650.8,-0.20023
1650.81,-0.2991
1650.82,-0.53437
1650.83,-0.98997
1650.84,-1.6717
1650.85,-2.53825
1650.86,-3.47121
1650.87,-4.33039
1650.88,-4.98672
1650.89,-5.45101
1650.9,-5.64771
1650.91,-5.59631
1650.92,-5.31365
1650.93,-4.84401
1650.94,-4.1798
1650.95,-3.37675
1650.96,-2.5611
1650.97,-1.76973
1650.98,-1.15056
1650.99,-0.70705
1651,-0.43551
1651.01,-0.2796
1651.02,-0.21099
1651.03,-0.18651
1651.04,-0.17322
1651.05,-0.16827
1651.06,-0.1661
1651.07,-0.1641
1651.08,-0.16306
1651.09,-0.1616
1651.1,-0.1613
1651.11,-0.1612
1651.12,-0.16192
1651.13,-0.16235
1651.14,-0.16252
1651.15,-0.16193
1651.16,-0.1624
1651.17,-0.16233
1651.18,-0.16266
1651.19,-0.16289
1651.2,-0.16286
1651.21,-0.16295
1651.22,-0.16352
1651.23,-0.16377
1651.24,-0.16303
1651.25,-0.16373
1651.26,-0.16285
1651.27,-0.16284
1651.28,-0.16239
1651.29,-0.16195
1651.3,-0.16221
1651.31,-0.16196
1651.32,-0.16225
1651.33,-0.1623
1651.34,-0.16246
1651.35,-0.16269
1651.36,-0.16322
1651.37,-0.16245
1651.38,-0.16286
1651.39,-0.16261
1651.4,-0.16256
1651.41,-0.16307
1651.42,-0.16298
1651.43,-0.16364
1651.44,-0.16363
1651.45,-0.16386
1651.46,-0.16422
1651.47,-0.16445
1651.48,-0.16445
1651.49,-0.1644
1651.5,-0.16356
1651.51,-0.16317
1651.52,-0.16382
1651.53,-0.16365
1651.54,-0.16355
1651.55,-0.16326
1651.56,-0.16341
1651.57,-0.16331
1651.58,-0.16443
1651.59,-0.16395
1651.6,-0.16378
1651.61,-0.16363
1651.62,-0.16451
1651.63,-0.16392
1651.64,-0.16509
1651.65,-0.1648
1651.66,-0.16623
1651.67,-0.16599
1651.68,-0.16674
1651.69,-0.16688
1651.7,-0.1667
1651.71,-0.16671
1651.72,-0.16619
1651.73,-0.16581
1651.74,-0.16541
1651.75,-0.16471
1651.76,-0.16427
1651.77,-0.16475
1651.78,-0.16393
1651.79,-0.1645
1651.8,-0.16432
1651.81,-0.16433
1651.82,-0.16395
1651.83,-0.16345
1651.84,-0.16341
1651.85,-0.16368
1651.86,-0.1631
1651.87,-0.16368
1651.88,-0.16374
1651.89,-0.16405
1651.9,-0.16422
1651.91,-0.1649
1651.92,-0.16429
1651.93,-0.16512
1651.94,-0.16495
1651.95,-0.16457
1651.96,-0.16483
1651.97,-0.16466
1651.98,-0.16429
1651.99,-0.1656
1652,-0.16412
1652.01,-0.16409
1652.02,-0.16451
1652.03,-0.16481
1652.04,-0.16452
1652.05,-0.16481
1652.06,-0.16514
1652.07,-0.16507
1652.08,-0.1653
1652.09,-0.16574
1652.1,-0.16565
1652.11,-0.16753
1652.12,-0.16535
1652.13,-0.16557
1652.14,-0.16569
1652.15,-0.16379
1652.16,-0.16413
1652.17,-0.16293
1652.18,-0.16328
1652.19,-0.16252
1652.2,-0.16216
1652.21,-0.16229
1652.22,-0.16261
1652.23,-0.16257
1652.24,-0.16222
1652.25,-0.16255
1652.26,-0.16138
1652.27,-0.16259
1652.28,-0.16245
1652.29,-0.16194
1652.3,-0.16194
1652.31,-0.16279
1652.32,-0.16249
1652.33,-0.16349
1652.34,-0.1628
1652.35,-0.16487
1652.36,-0.16436
1652.37,-0.16542
1652.38,-0.16546
1652.39,-0.16542
1652.4,-0.16538
1652.41,-0.16522
1652.42,-0.16573
1652.43,-0.16471
1652.44,-0.16662
1652.45,-0.16623
1652.46,-0.16531
1652.47,-0.16533
1652.48,-0.16407
1652.49,-0.16395
1652.5,-0.16294
1652.51,-0.16287
1652.52,-0.16206
1652.53,-0.16262
1652.54,-0.16274
1652.55,-0.16265
1652.56,-0.16274
1652.57,-0.16228
1652.58,-0.16328
1652.59,-0.16325
1652.6,-0.16306
1652.61,-0.16269
1652.62,-0.16289
1652.63,-0.16271
1652.64,-0.16343
1652.65,-0.16314
1652.66,-0.1638
1652.67,-0.16443
1652.68,-0.16513
1652.69,-0.16606
1652.7,-0.1663
1652.71,-0.16702
1652.72,-0.16711
1652.73,-0.16758
1652.74,-0.16699
1652.75,-0.16656
1652.76,-0.16638
1652.77,-0.16625
1652.78,-0.16648
1652.79,-0.16582
1652.8,-0.16568
1652.81,-0.16578
1652.82,-0.16505
1652.83,-0.16468
1652.84,-0.16544
1652.85,-0.16489
1652.86,-0.16391
1652.87,-0.16487
1652.88,-0.16508
1652.89,-0.16471
1652.9,-0.16567
1652.91,-0.16613
1652.92,-0.16647
1652.93,-0.16697
1652.94,-0.16722
1652.95,-0.16753
1652.96,-0.16783
1652.97,-0.16745
1652.98,-0.16678
1652.99,-0.16822
1653,-0.16695
1653.01,-0.16701
1653.02,-0.16676
1653.03,-0.16644
1653.04,-0.16597
1653.05,-0.16565
1653.06,-0.16537
1653.07,-0.16583
1653.08,-0.16525
1653.09,-0.16527
1653.1,-0.16631
1653.11,-0.165
1653.12,-0.1661
1653.13,-0.16726
1653.14,-0.16649
1653.15,-0.16673
1653.16,-0.16722
1653.17,-0.16714
1653.18,-0.16649
1653.19,-0.16714
1653.2,-0.16594
1653.21,-0.16627
1653.22,-0.16593
1653.23,-0.16627
1653.24,-0.16583
1653.25,-0.1664
1653.26,-0.16714
1653.27,-0.16664
1653.28,-0.16649
1653.29,-0.16658
1653.3,-0.16563
1653.31,-0.16545
1653.32,-0.16597
1653.33,-0.16536
1653.34,-0.16548
1653.35,-0.16524
1653.36,-0.16557
1653.37,-0.16454
1653.38,-0.16543
1653.39,-0.16418
1653.4,-0.16531
1653.41,-0.16521
1653.42,-0.16451
1653.43,-0.16656
1653.44,-0.16554
1653.45,-0.16621
1653.46,-0.16571
1653.47,-0.16572
1653.48,-0.16549
1653.49,-0.16496
1653.5,-0.16514
1653.51,-0.16621
1653.52,-0.16855
1653.53,-0.17238
1653.54,-0.17509
1653.55,-0.17476
1653.56,-0.17128
1653.57,-0.18531
1653.58,-0.25347
1653.59,-0.4228
1653.6,-0.75172
1653.61,-1.26567
1653.62,-2.01263
1653.63,-2.87486
1653.64,-3.67664
1653.65,-4.39829
1653.66,-4.88538
1653.67,-5.13073
1653.68,-5.146
1653.69,-4.94044
1653.7,-4.54611
1653.71,-3.9589
1653.72,-3.24351
1653.73,-2.51732
1653.74,-1.75564
1653.75,-1.15977
1653.76,-0.71606
1653.77,-0.44286
1653.78,-0.2949
1653.79,-0.22195
1653.8,-0.19105
1653.81,-0.17793
1653.82,-0.17271
1653.83,-0.16986
1653.84,-0.1677
1653.85,-0.16661
1653.86,-0.16566
1653.87,-0.16489
1653.88,-0.16489
1653.89,-0.16457
1653.9,-0.16538
1653.91,-0.16532
1653.92,-0.16512
1653.93,-0.1656
1653.94,-0.16504
1653.95,-0.16518
1653.96,-0.16502
1653.97,-0.16519
1653.98,-0.16498
1653.99,-0.16543
1654,-0.16528
1654.01,-0.16578
1654.02,-0.16568
1654.03,-0.1664
1654.04,-0.16646
1654.05,-0.16607
1654.06,-0.16635
1654.07,-0.16585
1654.08,-0.16577
1654.09,-0.16598
1654.1,-0.16577
1654.11,-0.16586
1654.12,-0.1658
1654.13,-0.16621
1654.14,-0.16578
1654.15,-0.16589
1654.16,-0.16563
1654.17,-0.16566
1654.18,-0.1657
1654.19,-0.16542
1654.2,-0.16562
1654.21,-0.16563
1654.22,-0.16584
1654.23,-0.1662
1654.24,-0.16476
1654.25,-0.16682
1654.26,-0.16643
1654.27,-0.1664
1654.28,-0.16647
1654.29,-0.16619
1654.3,-0.16618
1654.31,-0.16582
1654.32,-0.16602
1654.33,-0.16644
1654.34,-0.16643
1654.35,-0.1663
1654.36,-0.16635
1654.37,-0.16681
1654.38,-0.16646
1654.39,-0.16619
1654.4,-0.16587
1654.41,-0.16526
1654.42,-0.16591
1654.43,-0.16526
1654.44,-0.16526
1654.45,-0.16591
1654.46,-0.16617
1654.47,-0.16627
1654.48,-0.16595
1654.49,-0.16667
1654.5,-0.16711
1654.51,-0.16637
1654.52,-0.1668
1654.53,-0.16699
1654.54,-0.16676
1654.55,-0.16658
1654.56,-0.16678
1654.57,-0.16688
1654.58,-0.16681
1654.59,-0.16661
1654.6,-0.16651
1654.61,-0.16637
1654.62,-0.16545
1654.63,-0.1657
1654.64,-0.16554
1654.65,-0.16541
1654.66,-0.16523
1654.67,-0.16521
1654.68,-0.16542
1654.69,-0.16583
1654.7,-0.16572
1654.71,-0.16568
1654.72,-0.16583
1654.73,-0.16616
1654.74,-0.16563
1654.75,-0.16486
1654.76,-0.16667
1654.77,-0.16503
1654.78,-0.16557
1654.79,-0.16614
1654.8,-0.16614
1654.81,-0.16594
1654.82,-0.16635
1654.83,-0.16613
1654.84,-0.16678
1654.85,-0.16611
1654.86,-0.16592
1654.87,-0.16593
1654.88,-0.1654
1654.89,-0.16564
1654.9,-0.1665
1654.91,-0.16652
1654.92,-0.16715
1654.93,-0.16748
1654.94,-0.16737
1654.95,-0.1674
1654.96,-0.1672
1654.97,-0.16649
1654.98,-0.16678
1654.99,-0.16576
1655,-0.16649
1655.01,-0.16582
1655.02,-0.1663
1655.03,-0.16588
1655.04,-0.16625
1655.05,-0.16598
1655.06,-0.16582
1655.07,-0.1655
1655.08,-0.16555
1655.09,-0.16565
1655.1,-0.1654
1655.11,-0.16524
1655.12,-0.16521
1655.13,-0.16603
1655.14,-0.16602
1655.15,-0.16613
1655.16,-0.16599
1655.17,-0.16606
1655.18,-0.16585
1655.19,-0.16633
1655.2,-0.1657
1655.21,-0.16585
1655.22,-0.16638
1655.23,-0.16641
1655.24,-0.16696
1655.25,-0.16661
1655.26,-0.16752
1655.27,-0.1674
1655.28,-0.16772
1655.29,-0.16734
1655.3,-0.16713
1655.31,-0.16659
1655.32,-0.16662
1655.33,-0.16624
1655.34,-0.16641
1655.35,-0.16593
1655.36,-0.16589
1655.37,-0.16622
1655.38,-0.16608
1655.39,-0.16559
1655.4,-0.16538
1655.41,-0.16608
1655.42,-0.1651
1655.43,-0.16499
1655.44,-0.16513
1655.45,-0.16558
1655.46,-0.16522
1655.47,-0.165
1655.48,-0.16591
1655.49,-0.16556
1655.5,-0.16597
1655.51,-0.16585
1655.52,-0.16598
1655.53,-0.16616
1655.54,-0.16604
1655.55,-0.16627
1655.56,-0.16604
1655.57,-0.16721
1655.58,-0.16751
1655.59,-0.16749
1655.6,-0.1671
1655.61,-0.16736
1655.62,-0.16705
1655.63,-0.16644
1655.64,-0.1659
1655.65,-0.16632
1655.66,-0.1651
1655.67,-0.16579
1655.68,-0.1659
1655.69,-0.16571
1655.7,-0.16631
1655.71,-0.16659
1655.72,-0.16581
1655.73,-0.16583
1655.74,-0.16605
1655.75,-0.16648
1655.76,-0.16585
1655.77,-0.16583
1655.78,-0.16622
1655.79,-0.16667
1655.8,-0.16726
1655.81,-0.16671
1655.82,-0.16755
1655.83,-0.16715
1655.84,-0.16707
1655.85,-0.16706
1655.86,-0.16667
1655.87,-0.16597
1655.88,-0.16582
1655.89,-0.16581
1655.9,-0.16524
1655.91,-0.16593
1655.92,-0.16599
1655.93,-0.16587
1655.94,-0.1665
1655.95,-0.16594
1655.96,-0.16619
1655.97,-0.16578
1655.98,-0.1657
1655.99,-0.16602
1656,-0.16624
1656.01,-0.16687
1656.02,-0.16677
1656.03,-0.16724
1656.04,-0.16723
1656.05,-0.16768
1656.06,-0.16711
1656.07,-0.16727
1656.08,-0.16744
1656.09,-0.16677
1656.1,-0.16637
1656.11,-0.16668
1656.12,-0.1671
1656.13,-0.16713
1656.14,-0.16718
1656.15,-0.16728
1656.16,-0.16751
1656.17,-0.16738
1656.18,-0.16721
1656.19,-0.16646
1656.2,-0.1666
1656.21,-0.1665
1656.22,-0.16613
1656.23,-0.16639
1656.24,-0.16672
1656.25,-0.16699
1656.26,-0.16738
1656.27,-0.16775
1656.28,-0.16818
1656.29,-0.16801
1656.3,-0.1675
1656.31,-0.16745
1656.32,-0.16694
1656.33,-0.16708
1656.34,-0.16715
1656.35,-0.1674
1656.36,-0.16853
1656.37,-0.17026
1656.38,-0.17282
1656.39,-0.17328
1656.4,-0.1723
1656.41,-0.17009
1656.42,-0.17847
1656.43,-0.22358
1656.44,-0.3339
1656.45,-0.52215
1656.46,-0.80185
1656.47,-1.15745
1656.48,-1.55945
1656.49,-1.93242
1656.5,-2.27111
1656.51,-2.49677
1656.52,-2.568
1656.53,-2.48385
1656.54,-2.25782
1656.55,-1.92922
1656.56,-1.55953
1656.57,-1.18329
1656.58,-0.82371
1656.59,-0.5749
1656.6,-0.39578
1656.61,-0.28463
1656.62,-0.2198
1656.63,-0.18969
1656.64,-0.17699
1656.65,-0.17234
1656.66,-0.16969
1656.67,-0.16935
1656.68,-0.16877
1656.69,-0.1686
1656.7,-0.16797
1656.71,-0.16792
1656.72,-0.1681
1656.73,-0.16865
1656.74,-0.16663
1656.75,-0.16716
1656.76,-0.1677
1656.77,-0.16645
1656.78,-0.16727
1656.79,-0.16739
1656.8,-0.16746
1656.81,-0.16711
1656.82,-0.1676
1656.83,-0.1674
1656.84,-0.16714
1656.85,-0.16711
1656.86,-0.16684
1656.87,-0.16672
1656.88,-0.16683
1656.89,-0.1667
1656.9,-0.16685
1656.91,-0.16694
1656.92,-0.16799
1656.93,-0.16761
1656.94,-0.1683
1656.95,-0.16731
1656.96,-0.16835
1656.97,-0.1675
1656.98,-0.1676
1656.99,-0.16726
1657,-0.16745
1657.01,-0.16749
1657.02,-0.16703
1657.03,-0.16749
1657.04,-0.16791
1657.05,-0.16735
1657.06,-0.1677
1657.07,-0.16771
1657.08,-0.16746
1657.09,-0.16677
1657.1,-0.16706
1657.11,-0.16694
1657.12,-0.16722
1657.13,-0.16682
1657.14,-0.16733
1657.15,-0.16753
1657.16,-0.16804
1657.17,-0.16786
1657.18,-0.16774
1657.19,-0.16782
1657.2,-0.16757
1657.21,-0.16754
1657.22,-0.16812
1657.23,-0.1678
1657.24,-0.16835
1657.25,-0.1683
1657.26,-0.16836
1657.27,-0.16868
1657.28,-0.16897
1657.29,-0.16833
1657.3,-0.16909
1657.31,-0.16805
1657.32,-0.16805
1657.33,-0.16812
1657.34,-0.16811
1657.35,-0.16819
1657.36,-0.16867
1657.37,-0.16895
1657.38,-0.16901
1657.39,-0.16977
1657.4,-0.16951
1657.41,-0.16934
1657.42,-0.16998
1657.43,-0.16988
1657.44,-0.16972
1657.45,-0.17056
1657.46,-0.17018
1657.47,-0.17005
1657.48,-0.17043
1657.49,-0.17018
1657.5,-0.1701
1657.51,-0.16995
1657.52,-0.16933
1657.53,-0.16969
1657.54,-0.16919
1657.55,-0.16909
1657.56,-0.16855
1657.57,-0.16868
1657.58,-0.16919
1657.59,-0.16928
1657.6,-0.16932
1657.61,-0.16945
1657.62,-0.16937
1657.63,-0.16972
1657.64,-0.16914
1657.65,-0.1687
1657.66,-0.16915
1657.67,-0.16915
1657.68,-0.16948
1657.69,-0.16971
1657.7,-0.16999
1657.71,-0.17026
1657.72,-0.17046
1657.73,-0.17024
1657.74,-0.17102
1657.75,-0.17041
1657.76,-0.17057
1657.77,-0.17016
1657.78,-0.16966
1657.79,-0.17033
1657.8,-0.17006
1657.81,-0.17065
1657.82,-0.17115
1657.83,-0.17093
1657.84,-0.17127
1657.85,-0.17165
1657.86,-0.17144
1657.87,-0.17114
1657.88,-0.17048
1657.89,-0.17044
1657.9,-0.17036
1657.91,-0.17079
1657.92,-0.16939
1657.93,-0.17002
1657.94,-0.17023
1657.95,-0.16943
1657.96,-0.16989
1657.97,-0.16914
1657.98,-0.16916
1657.99,-0.16898
1658,-0.16897
1658.01,-0.1689
1658.02,-0.16887
1658.03,-0.16902
1658.04,-0.16873
1658.05,-0.16935
1658.06,-0.16913
1658.07,-0.16953
1658.08,-0.16921
1658.09,-0.16874
1658.1,-0.16923
1658.11,-0.16886
1658.12,-0.16941
1658.13,-0.16922
1658.14,-0.17
1658.15,-0.1699
1658.16,-0.17023
1658.17,-0.17051
1658.18,-0.17034
1658.19,-0.17039
1658.2,-0.1704
1658.21,-0.16981
1658.22,-0.16917
1658.23,-0.17044
1658.24,-0.16931
1658.25,-0.16847
1658.26,-0.16888
1658.27,-0.16887
1658.28,-0.16848
1658.29,-0.16881
1658.3,-0.1681
1658.31,-0.16791
1658.32,-0.16794
1658.33,-0.16687
1658.34,-0.16738
1658.35,-0.16778
1658.36,-0.16756
1658.37,-0.16806
1658.38,-0.16835
1658.39,-0.16808
1658.4,-0.16773
1658.41,-0.16829
1658.42,-0.16788
1658.43,-0.16784
1658.44,-0.16786
1658.45,-0.16791
1658.46,-0.16867
1658.47,-0.16873
1658.48,-0.1702
1658.49,-0.16982
1658.5,-0.17029
1658.51,-0.16983
1658.52,-0.16975
1658.53,-0.16956
1658.54,-0.1697
1658.55,-0.16922
1658.56,-0.16822
1658.57,-0.1686
1658.58,-0.16846
1658.59,-0.1691
1658.6,-0.16868
1658.61,-0.1687
1658.62,-0.16875
1658.63,-0.16882
1658.64,-0.16871
1658.65,-0.16813
1658.66,-0.16841
1658.67,-0.16843
1658.68,-0.16848
1658.69,-0.1688
1658.7,-0.16945
1658.71,-0.16939
1658.72,-0.1698
1658.73,-0.17059
1658.74,-0.17001
1658.75,-0.17012
1658.76,-0.17026
1658.77,-0.1702
1658.78,-0.16921
1658.79,-0.16997
1658.8,-0.16921
1658.81,-0.16973
1658.82,-0.16935
1658.83,-0.1697
1658.84,-0.16947
1658.85,-0.16939
1658.86,-0.17004
1658.87,-0.16928
1658.88,-0.16884
1658.89,-0.16951
1658.9,-0.16916
1658.91,-0.16956
1658.92,-0.17023
1658.93,-0.17036
1658.94,-0.17078
1658.95,-0.17075
1658.96,-0.17148
1658.97,-0.17056
1658.98,-0.17094
1658.99,-0.17059
1659,-0.17034
1659.01,-0.17032
1659.02,-0.17044
1659.03,-0.17035
1659.04,-0.17102
1659.05,-0.17075
1659.06,-0.17103
1659.07,-0.17132
1659.08,-0.17023
1659.09,-0.17063
1659.1,-0.16986
1659.11,-0.17035
1659.12,-0.17011
1659.13,-0.1699
1659.14,-0.17052
1659.15,-0.17002
1659.16,-0.17059
1659.17,-0.17018
1659.18,-0.17016
1659.19,-0.17019
1659.2,-0.16986
1659.21,-0.1702
1659.22,-0.17084
1659.23,-0.17056
1659.24,-0.17189
1659.25,-0.17275
1659.26,-0.17098
1659.27,-0.17257
1659.28,-0.1813
1659.29,-0.21314
1659.3,-0.27868
1659.31,-0.38394
1659.32,-0.53839
1659.33,-0.73382
1659.34,-0.92815
1659.35,-1.10567
1659.36,-1.24186
1659.37,-1.31049
1659.38,-1.30131
1659.39,-1.21745
1659.4,-1.06321
1659.41,-0.87487
1659.42,-0.67546
1659.43,-0.51024
1659.44,-0.38084
1659.45,-0.28949
1659.46,-0.23002
1659.47,-0.1958
1659.48,-0.18089
1659.49,-0.17489
1659.5,-0.17249
1659.51,-0.17088
1659.52,-0.17029
1659.53,-0.17006
1659.54,-0.16991
1659.55,-0.16925
1659.56,-0.16855
1659.57,-0.16897
1659.58,-0.16901
1659.59,-0.16899
1659.6,-0.16909
1659.61,-0.16954
1659.62,-0.16956
1659.63,-0.1688
1659.64,-0.17047
1659.65,-0.16862
1659.66,-0.1692
1659.67,-0.16844
1659.68,-0.16879
1659.69,-0.16908
1659.7,-0.16902
1659.71,-0.16933
1659.72,-0.16943
1659.73,-0.16915
1659.74,-0.16931
1659.75,-0.16918
1659.76,-0.16912
1659.77,-0.16922
1659.78,-0.1688
1659.79,-0.16895
1659.8,-0.16871
1659.81,-0.16947
1659.82,-0.16897
1659.83,-0.1693
1659.84,-0.16921
1659.85,-0.16925
1659.86,-0.16919
1659.87,-0.16864
1659.88,-0.1696
1659.89,-0.16881
1659.9,-0.16898
1659.91,-0.16844
1659.92,-0.16871
1659.93,-0.16932
1659.94,-0.16975
1659.95,-0.16978
1659.96,-0.16877
1659.97,-0.1692
1659.98,-0.16954
1659.99,-0.1691
1660,-0.16871
1660.01,-0.16887
1660.02,-0.16891
1660.03,-0.16928
1660.04,-0.16927
1660.05,-0.16932
1660.06,-0.16972
1660.07,-0.16973
1660.08,-0.16895
1660.09,-0.17007
1660.1,-0.16924
1660.11,-0.16928
1660.12,-0.16963
1660.13,-0.16965
1660.14,-0.16971
1660.15,-0.17001
1660.16,-0.16953
1660.17,-0.17008
1660.18,-0.17006
1660.19,-0.16969
1660.2,-0.17062
1660.21,-0.16992
1660.22,-0.16939
1660.23,-0.1686
1660.24,-0.17047
1660.25,-0.16973
1660.26,-0.17003
1660.27,-0.16996
1660.28,-0.17053
1660.29,-0.17044
1660.3,-0.17027
1660.31,-0.17026
1660.32,-0.1699
1660.33,-0.16987
1660.34,-0.16948
1660.35,-0.16985
1660.36,-0.1693
1660.37,-0.1706
1660.38,-0.17053
1660.39,-0.16983
1660.4,-0.17106
1660.41,-0.16992
1660.42,-0.17059
1660.43,-0.17023
1660.44,-0.17005
1660.45,-0.17013
1660.46,-0.16975
1660.47,-0.16963
1660.48,-0.17047
1660.49,-0.17041
1660.5,-0.17055
1660.51,-0.17065
1660.52,-0.17044
1660.53,-0.17068
1660.54,-0.16925
1660.55,-0.17041
1660.56,-0.17006
1660.57,-0.16951
1660.58,-0.16972
1660.59,-0.16952
1660.6,-0.16971
1660.61,-0.17023
1660.62,-0.17077
1660.63,-0.17004
1660.64,-0.17043
1660.65,-0.17109
1660.66,-0.16949
1660.67,-0.16914
1660.68,-0.16981
1660.69,-0.16996
1660.7,-0.16951
1660.71,-0.17005
1660.72,-0.17001
1660.73,-0.17004
1660.74,-0.1711
1660.75,-0.17026
1660.76,-0.16978
1660.77,-0.17065
1660.78,-0.17007
1660.79,-0.16974
1660.8,-0.16987
1660.81,-0.17038
1660.82,-0.17027
1660.83,-0.16996
1660.84,-0.17111
1660.85,-0.16998
1660.86,-0.17088
1660.87,-0.1704
1660.88,-0.17028
1660.89,-0.16969
1660.9,-0.17031
1660.91,-0.1699
1660.92,-0.17005
1660.93,-0.17179
1660.94,-0.16991
1660.95,-0.17105
1660.96,-0.17109
1660.97,-0.17098
1660.98,-0.17085
1660.99,-0.17031
1661,-0.17077
1661.01,-0.16998
1661.02,-0.17056
1661.03,-0.17085
1661.04,-0.17098
1661.05,-0.17051
1661.06,-0.17087
1661.07,-0.17118
1661.08,-0.17058
1661.09,-0.17058
1661.1,-0.17093
1661.11,-0.17084
1661.12,-0.17077
1661.13,-0.17059
1661.14,-0.17026
1661.15,-0.17113
1661.16,-0.17071
1661.17,-0.17106
1661.18,-0.17169
1661.19,-0.17123
1661.2,-0.17066
1661.21,-0.17095
1661.22,-0.17031
1661.23,-0.17111
1661.24,-0.17067
1661.25,-0.17047
1661.26,-0.17036
1661.27,-0.1705
1661.28,-0.17072
1661.29,-0.17123
1661.3,-0.17088
1661.31,-0.17115
1661.32,-0.17078
1661.33,-0.17018
1661.34,-0.17086
1661.35,-0.17026
1661.36,-0.16986
1661.37,-0.17024
1661.38,-0.17048
1661.39,-0.17041
1661.4,-0.17067
1661.41,-0.17086
1661.42,-0.17123
1661.43,-0.17019
1661.44,-0.17063
1661.45,-0.17066
1661.46,-0.17005
1661.47,-0.16991
1661.48,-0.16988
1661.49,-0.1706
1661.5,-0.17099
1661.51,-0.17074
1661.52,-0.17025
1661.53,-0.17105
1661.54,-0.17072
1661.55,-0.16993
1661.56,-0.17023
1661.57,-0.17014
1661.58,-0.16978
1661.59,-0.17009
1661.6,-0.16967
1661.61,-0.1715
1661.62,-0.17008
1661.63,-0.17103
1661.64,-0.17043
1661.65,-0.17085
1661.66,-0.17038
1661.67,-0.17011
1661.68,-0.17048
1661.69,-0.17005
1661.7,-0.1703
1661.71,-0.17073
1661.72,-0.17049
1661.73,-0.17088
1661.74,-0.1709
1661.75,-0.17093
1661.76,-0.17059
1661.77,-0.17082
1661.78,-0.17072
1661.79,-0.16999
1661.8,-0.17063
1661.81,-0.17046
1661.82,-0.17005
1661.83,-0.17044
1661.84,-0.17105
1661.85,-0.17028
1661.86,-0.17222
1661.87,-0.17108
1661.88,-0.17075
1661.89,-0.17028
1661.9,-0.17056
1661.91,-0.17048
1661.92,-0.17032
1661.93,-0.17094
1661.94,-0.17059
1661.95,-0.17096
1661.96,-0.17085
1661.97,-0.17127
1661.98,-0.17135
1661.99,-0.17139
1662,-0.17086
1662.01,-0.1701
1662.02,-0.17077
1662.03,-0.1705
1662.04,-0.17124
1662.05,-0.17099
1662.06,-0.17172
1662.07,-0.17181
1662.08,-0.17139
1662.09,-0.17109
1662.1,-0.171
1662.11,-0.17173
1662.12,-0.17102
1662.13,-0.17151
1662.14,-0.17144
1662.15,-0.17305
1662.16,-0.17409
1662.17,-0.17442
1662.18,-0.17397
1662.19,-0.17434
1662.2,-0.18302
1662.21,-0.20516
1662.22,-0.26761
1662.23,-0.37402
1662.24,-0.52378
1662.25,-0.70523
1662.26,-0.91541
1662.27,-1.12023
1662.28,-1.27835
1662.29,-1.36156
1662.3,-1.36008
1662.31,-1.2738
1662.32,-1.12408
1662.33,-0.93895
1662.34,-0.74631
1662.35,-0.57112
1662.36,-0.42408
1662.37,-0.31474
1662.38,-0.24778
1662.39,-0.20721
1662.4,-0.18784
1662.41,-0.17834
1662.42,-0.17567
1662.43,-0.17354
1662.44,-0.1736
1662.45,-0.17261
1662.46,-0.17261
1662.47,-0.17229
1662.48,-0.17222
1662.49,-0.17206
1662.5,-0.17256
1662.51,-0.17275
1662.52,-0.17216
1662.53,-0.1727
1662.54,-0.17268
1662.55,-0.17225
1662.56,-0.17251
1662.57,-0.17194
1662.58,-0.17213
1662.59,-0.17154
1662.6,-0.17234
1662.61,-0.1723
1662.62,-0.17251
1662.63,-0.17249
1662.64,-0.17287
1662.65,-0.17242
1662.66,-0.1723
1662.67,-0.172
1662.68,-0.17171
1662.69,-0.17155
1662.7,-0.17167
1662.71,-0.17168
1662.72,-0.17234
1662.73,-0.17244
1662.74,-0.172
1662.75,-0.17238
1662.76,-0.1721
1662.77,-0.17231
1662.78,-0.17172
1662.79,-0.17138
1662.8,-0.1711
1662.81,-0.17148
1662.82,-0.17117
1662.83,-0.17148
1662.84,-0.17171
1662.85,-0.17204
1662.86,-0.17157
1662.87,-0.17148
1662.88,-0.17184
1662.89,-0.17098
1662.9,-0.17125
1662.91,-0.17053
1662.92,-0.17106
1662.93,-0.17053
1662.94,-0.17107
1662.95,-0.17122
1662.96,-0.17102
1662.97,-0.17034
1662.98,-0.17246
1662.99,-0.17053
1663,-0.17016
1663.01,-0.17106
1663.02,-0.17055
1663.03,-0.17033
1663.04,-0.17
1663.05,-0.17031
1663.06,-0.17078
1663.07,-0.17022
1663.08,-0.17083
1663.09,-0.17064
1663.1,-0.16994
1663.11,-0.16972
1663.12,-0.17062
1663.13,-0.17029
1663.14,-0.16995
1663.15,-0.17029
1663.16,-0.17082
1663.17,-0.1705
1663.18,-0.17084
1663.19,-0.17033
1663.2,-0.1715
1663.21,-0.17029
1663.22,-0.17083
1663.23,-0.17113
1663.24,-0.17062
1663.25,-0.17014
1663.26,-0.17053
1663.27,-0.1704
1663.28,-0.171
1663.29,-0.17098
1663.3,-0.17136
1663.31,-0.17142
1663.32,-0.17163
1663.33,-0.17136
1663.34,-0.17171
1663.35,-0.17084
1663.36,-0.1707
1663.37,-0.17153
1663.38,-0.17116
1663.39,-0.1715
1663.4,-0.17208
1663.41,-0.17195
1663.42,-0.17233
1663.43,-0.17207
1663.44,-0.17208
1663.45,-0.17158
1663.46,-0.17178
1663.47,-0.17172
1663.48,-0.17157
1663.49,-0.17214
1663.5,-0.17204
1663.51,-0.17216
1663.52,-0.17229
1663.53,-0.17296
1663.54,-0.17272
1663.55,-0.17245
1663.56,-0.17263
1663.57,-0.17267
1663.58,-0.17257
1663.59,-0.17224
1663.6,-0.17299
1663.61,-0.17239
1663.62,-0.17257
1663.63,-0.17305
1663.64,-0.17328
1663.65,-0.17306
1663.66,-0.17306
1663.67,-0.17306
1663.68,-0.17256
1663.69,-0.17238
1663.7,-0.17233
1663.71,-0.17231
1663.72,-0.17316
1663.73,-0.17333
1663.74,-0.17318
1663.75,-0.17282
1663.76,-0.17343
1663.77,-0.17351
1663.78,-0.17284
1663.79,-0.17298
1663.8,-0.17297
1663.81,-0.17258
1663.82,-0.17275
1663.83,-0.17283
1663.84,-0.17265
1663.85,-0.17343
1663.86,-0.17315
1663.87,-0.1732
1663.88,-0.17315
1663.89,-0.17331
1663.9,-0.17319
1663.91,-0.17242
1663.92,-0.17286
1663.93,-0.1726
1663.94,-0.17293
1663.95,-0.17323
1663.96,-0.17281
1663.97,-0.17374
1663.98,-0.1732
1663.99,-0.17274
1664,-0.17236
1664.01,-0.17294
1664.02,-0.17238
1664.03,-0.1729
1664.04,-0.17244
1664.05,-0.17267
1664.06,-0.17269
1664.07,-0.17276
1664.08,-0.17294
1664.09,-0.17289
1664.1,-0.17278
1664.11,-0.17245
1664.12,-0.17218
1664.13,-0.17226
1664.14,-0.17218
1664.15,-0.17183
1664.16,-0.17185
1664.17,-0.17235
1664.18,-0.17229
1664.19,-0.17208
1664.2,-0.17241
1664.21,-0.17238
1664.22,-0.17227
1664.23,-0.17229
1664.24,-0.17225
1664.25,-0.17181
1664.26,-0.17109
1664.27,-0.17196
1664.28,-0.17118
1664.29,-0.17185
1664.3,-0.17187
1664.31,-0.172
1664.32,-0.1727
1664.33,-0.17242
1664.34,-0.1722
1664.35,-0.17224
1664.36,-0.1715
1664.37,-0.1713
1664.38,-0.17119
1664.39,-0.17186
1664.4,-0.17167
1664.41,-0.17171
1664.42,-0.17186
1664.43,-0.1722
1664.44,-0.17237
1664.45,-0.17173
1664.46,-0.17176
1664.47,-0.17167
1664.48,-0.1714
1664.49,-0.17176
1664.5,-0.17209
1664.51,-0.1717
1664.52,-0.17181
1664.53,-0.17224
1664.54,-0.17198
1664.55,-0.17232
1664.56,-0.17258
1664.57,-0.17256
1664.58,-0.1715
1664.59,-0.17213
1664.6,-0.17181
1664.61,-0.17191
1664.62,-0.17269
1664.63,-0.17234
1664.64,-0.17322
1664.65,-0.17272
1664.66,-0.17331
1664.67,-0.17253
1664.68,-0.17289
1664.69,-0.17282
1664.7,-0.17261
1664.71,-0.17281
1664.72,-0.17265
1664.73,-0.1728
1664.74,-0.17298
1664.75,-0.1736
1664.76,-0.1739
1664.77,-0.17324
1664.78,-0.17355
1664.79,-0.17299
1664.8,-0.17286
1664.81,-0.17255
1664.82,-0.1733
1664.83,-0.17274
1664.84,-0.17289
1664.85,-0.17328
1664.86,-0.17292
1664.87,-0.17354
1664.88,-0.17348
1664.89,-0.17371
1664.9,-0.17346
1664.91,-0.17287
1664.92,-0.17313
1664.93,-0.17275
1664.94,-0.17363
1664.95,-0.17319
1664.96,-0.17314
1664.97,-0.1736
1664.98,-0.17392
1664.99,-0.17432
1665,-0.17431
1665.01,-0.17356
1665.02,-0.17353
1665.03,-0.1734
1665.04,-0.1729
1665.05,-0.17335
1665.06,-0.17326
1665.07,-0.17321
1665.08,-0.1738
1665.09,-0.17375
1665.1,-0.17382
1665.11,-0.17379
1665.12,-0.17368
1665.13,-0.1735
1665.14,-0.17333
1665.15,-0.1725
1665.16,-0.17264
1665.17,-0.17356
1665.18,-0.17283
1665.19,-0.17299
1665.2,-0.17302
1665.21,-0.17373
1665.22,-0.17349
1665.23,-0.17395
1665.24,-0.17328
1665.25,-0.17356
1665.26,-0.17234
1665.27,-0.17324
1665.28,-0.1731
1665.29,-0.17359
1665.3,-0.17339
1665.31,-0.17398
1665.32,-0.17384
1665.33,-0.17364
1665.34,-0.17395
1665.35,-0.17358
1665.36,-0.17387
1665.37,-0.17352
1665.38,-0.17308
1665.39,-0.17385
1665.4,-0.17342
1665.41,-0.17329
1665.42,-0.1735
1665.43,-0.17368
1665.44,-0.17327
1665.45,-0.17355
1665.46,-0.17265
1665.47,-0.17294
1665.48,-0.17301
1665.49,-0.17249
1665.5,-0.17321
1665.51,-0.17242
1665.52,-0.17248
1665.53,-0.17266
1665.54,-0.17318
1665.55,-0.17271
1665.56,-0.17295
1665.57,-0.17267
1665.58,-0.17267
1665.59,-0.17244
1665.6,-0.17219
1665.61,-0.17271
1665.62,-0.17264
1665.63,-0.17257
1665.64,-0.17294
1665.65,-0.1733
1665.66,-0.17344
1665.67,-0.17361
1665.68,-0.17231
1665.69,-0.17257
1665.7,-0.17261
1665.71,-0.17262
1665.72,-0.17229
1665.73,-0.17245
1665.74,-0.17274
1665.75,-0.17283
1665.76,-0.17283
1665.77,-0.17345
1665.78,-0.17266
1665.79,-0.17301
1665.8,-0.17261
1665.81,-0.17235
1665.82,-0.17267
1665.83,-0.17237
1665.84,-0.17266
1665.85,-0.17306
1665.86,-0.17332
1665.87,-0.17341
1665.88,-0.1737
1665.89,-0.17369
1665.9,-0.17358
1665.91,-0.17393
1665.92,-0.17357
1665.93,-0.17331
1665.94,-0.17354
1665.95,-0.17335
1665.96,-0.17336
1665.97,-0.17347
1665.98,-0.1735
1665.99,-0.17373
1666,-0.17334
1666.01,-0.17316
1666.02,-0.17345
1666.03,-0.17311
1666.04,-0.1721
1666.05,-0.1726
1666.06,-0.17288
1666.07,-0.17218
1666.08,-0.17304
1666.09,-0.1732
1666.1,-0.1734
1666.11,-0.17352
1666.12,-0.17324
1666.13,-0.17288
1666.14,-0.17275
1666.15,-0.17321
1666.16,-0.17271
1666.17,-0.17319
1666.18,-0.17361
1666.19,-0.17325
1666.2,-0.17349
1666.21,-0.17429
1666.22,-0.17401
1666.23,-0.17422
1666.24,-0.17385
1666.25,-0.1731
1666.26,-0.17345
1666.27,-0.17354
1666.28,-0.17359
1666.29,-0.17344
1666.3,-0.17327
1666.31,-0.17359
1666.32,-0.17385
1666.33,-0.17447
1666.34,-0.17427
1666.35,-0.1738
1666.36,-0.17427
1666.37,-0.17365
1666.38,-0.17383
1666.39,-0.17365
1666.4,-0.17467
1666.41,-0.17456
1666.42,-0.17539
1666.43,-0.17556
1666.44,-0.17489
1666.45,-0.17499
1666.46,-0.17483
1666.47,-0.17418
1666.48,-0.17418
1666.49,-0.17354
1666.5,-0.17399
1666.51,-0.17334
1666.52,-0.17331
1666.53,-0.17368
1666.54,-0.17355
1666.55,-0.17401
1666.56,-0.17379
1666.57,-0.17343
1666.58,-0.17356
1666.59,-0.17325
1666.6,-0.17338
1666.61,-0.17338
1666.62,-0.17258
1666.63,-0.17377
1666.64,-0.17353
1666.65,-0.17406
1666.66,-0.17399
1666.67,-0.1737
1666.68,-0.17406
1666.69,-0.17352
1666.7,-0.17391
1666.71,-0.17399
1666.72,-0.17371
1666.73,-0.17368
1666.74,-0.1737
1666.75,-0.17362
1666.76,-0.17424
1666.77,-0.17414
1666.78,-0.17436
1666.79,-0.17429
1666.8,-0.17425
1666.81,-0.17396
1666.82,-0.17406
1666.83,-0.17467
1666.84,-0.17471
1666.85,-0.17506
1666.86,-0.17517
1666.87,-0.17483
1666.88,-0.17451
1666.89,-0.17506
1666.9,-0.1742
1666.91,-0.17463
1666.92,-0.17343
1666.93,-0.17329
1666.94,-0.1731
1666.95,-0.17324
1666.96,-0.17301
1666.97,-0.17312
1666.98,-0.17325
1666.99,-0.17357
1667,-0.17361
1667.01,-0.17379
1667.02,-0.17301
1667.03,-0.17333
1667.04,-0.17318
1667.05,-0.17251
1667.06,-0.17349
1667.07,-0.17281
1667.08,-0.1742
1667.09,-0.17486
1667.1,-0.17431
1667.11,-0.17469
1667.12,-0.1744
1667.13,-0.17481
1667.14,-0.17466
1667.15,-0.17452
1667.16,-0.17493
1667.17,-0.17474
1667.18,-0.17514
1667.19,-0.17499
1667.2,-0.17513
1667.21,-0.1754
1667.22,-0.17576
1667.23,-0.17433
1667.24,-0.17441
1667.25,-0.17459
1667.26,-0.17327
1667.27,-0.17393
1667.28,-0.17337
1667.29,-0.17317
1667.3,-0.17362
1667.31,-0.17353
1667.32,-0.17363
1667.33,-0.17393
1667.34,-0.1737
1667.35,-0.17414
1667.36,-0.17336
1667.37,-0.1728
1667.38,-0.17322
1667.39,-0.17294
1667.4,-0.17323
1667.41,-0.17325
1667.42,-0.17366
1667.43,-0.17382
1667.44,-0.174
1667.45,-0.17414
1667.46,-0.17433
1667.47,-0.17411
1667.48,-0.1743
1667.49,-0.17452
1667.5,-0.17434
1667.51,-0.175
1667.52,-0.17479
1667.53,-0.17425
1667.54,-0.17514
1667.55,-0.17517
1667.56,-0.17407
1667.57,-0.17476
1667.58,-0.17365
1667.59,-0.17345
1667.6,-0.17273
1667.61,-0.1724
1667.62,-0.17256
1667.63,-0.17308
1667.64,-0.17267
1667.65,-0.17353
1667.66,-0.17374
1667.67,-0.17332
1667.68,-0.17372
1667.69,-0.17323
1667.7,-0.17377
1667.71,-0.17348
1667.72,-0.1738
1667.73,-0.17401
1667.74,-0.17416
1667.75,-0.17426
1667.76,-0.17467
1667.77,-0.17484
1667.78,-0.17534
1667.79,-0.17436
1667.8,-0.174
1667.81,-0.1739
1667.82,-0.17345
1667.83,-0.17366
1667.84,-0.17331
1667.85,-0.17327
1667.86,-0.17344
1667.87,-0.17311
1667.88,-0.174
1667.89,-0.17415
1667.9,-0.17382
1667.91,-0.17357
1667.92,-0.17374
1667.93,-0.17344
1667.94,-0.17337
1667.95,-0.17348
1667.96,-0.17354
1667.97,-0.17343
1667.98,-0.17333
1667.99,-0.17429
1668,-0.17385
1668.01,-0.17348
1668.02,-0.17406
1668.03,-0.17341
1668.04,-0.17356
1668.05,-0.17354
1668.06,-0.17322
1668.07,-0.17397
1668.08,-0.17336
1668.09,-0.17409
1668.1,-0.17474
1668.11,-0.17311
1668.12,-0.17403
1668.13,-0.17495
1668.14,-0.17379
1668.15,-0.17334
1668.16,-0.17304
1668.17,-0.17347
1668.18,-0.17277
1668.19,-0.17342
1668.2,-0.17334
1668.21,-0.1735
1668.22,-0.1742
1668.23,-0.17358
1668.24,-0.17316
1668.25,-0.17424
1668.26,-0.17324
1668.27,-0.17329
1668.28,-0.1734
1668.29,-0.1732
1668.3,-0.17383
1668.31,-0.17392
1668.32,-0.17336
1668.33,-0.17419
1668.34,-0.17488
1668.35,-0.17463
1668.36,-0.1749
1668.37,-0.17439
1668.38,-0.17419
1668.39,-0.17424
1668.4,-0.17439
1668.41,-0.17498
1668.42,-0.17455
1668.43,-0.17555
1668.44,-0.17594
1668.45,-0.17604
1668.46,-0.17566
1668.47,-0.1761
1668.48,-0.17596
1668.49,-0.17613
1668.5,-0.17625
1668.51,-0.17592
1668.52,-0.1759
1668.53,-0.17623
1668.54,-0.17489
1668.55,-0.17639
1668.56,-0.17582
1668.57,-0.17569
1668.58,-0.17515
1668.59,-0.17573
1668.6,-0.17492
1668.61,-0.17496
1668.62,-0.1743
1668.63,-0.17548
1668.64,-0.17532
1668.65,-0.17471
1668.66,-0.17466
1668.67,-0.17505
1668.68,-0.17521
1668.69,-0.17511
1668.7,-0.17477
1668.71,-0.17487
1668.72,-0.17521
1668.73,-0.17382
1668.74,-0.17458
1668.75,-0.17549
1668.76,-0.17467
1668.77,-0.17495
1668.78,-0.1751
1668.79,-0.17569
1668.8,-0.17523
1668.81,-0.17466
1668.82,-0.17463
1668.83,-0.17342
1668.84,-0.17374
1668.85,-0.17359
1668.86,-0.1738
1668.87,-0.174
1668.88,-0.17377
1668.89,-0.17472
1668.9,-0.17477
1668.91,-0.17406
1668.92,-0.17409
1668.93,-0.17356
1668.94,-0.17426
1668.95,-0.17347
1668.96,-0.17401
1668.97,-0.17424
1668.98,-0.17424
1668.99,-0.17513
1669,-0.17535
1669.01,-0.17579
1669.02,-0.1757
1669.03,-0.17555
1669.04,-0.17578
1669.05,-0.17568
1669.06,-0.17625
1669.07,-0.17424
1669.08,-0.1754
1669.09,-0.17519
1669.1,-0.17472
1669.11,-0.17459
1669.12,-0.17488
1669.13,-0.17439
1669.14,-0.17415
1669.15,-0.17378
1669.16,-0.17326
1669.17,-0.17294
1669.18,-0.17347
1669.19,-0.17279
1669.2,-0.17296
1669.21,-0.17326
1669.22,-0.17336
1669.23,-0.17309
1669.24,-0.17468
1669.25,-0.1734
1669.26,-0.17356
1669.27,-0.17383
1669.28,-0.17365
1669.29,-0.17335
1669.3,-0.17422
1669.31,-0.17428
1669.32,-0.17474
1669.33,-0.17472
1669.34,-0.1749
1669.35,-0.17512
1669.36,-0.17399
1669.37,-0.17423
1669.38,-0.17461
1669.39,-0.17424
1669.4,-0.17402
1669.41,-0.17352
1669.42,-0.17396
1669.43,-0.17386
1669.44,-0.1745
1669.45,-0.17426
1669.46,-0.17461
1669.47,-0.175
1669.48,-0.17512
1669.49,-0.17495
1669.5,-0.17598
1669.51,-0.1748
1669.52,-0.17626
1669.53,-0.17677
1669.54,-0.17691
1669.55,-0.1776
1669.56,-0.1771
1669.57,-0.17747
1669.58,-0.17672
1669.59,-0.17619
1669.6,-0.17653
1669.61,-0.17397
1669.62,-0.17576
1669.63,-0.17435
1669.64,-0.1745
1669.65,-0.17407
1669.66,-0.17448
1669.67,-0.17452
1669.68,-0.1746
1669.69,-0.17446
1669.7,-0.17451
1669.71,-0.17396
1669.72,-0.17361
1669.73,-0.17403
1669.74,-0.17441
1669.75,-0.17339
1669.76,-0.17453
1669.77,-0.17458
1669.78,-0.17497
1669.79,-0.17526
1669.8,-0.17539
1669.81,-0.17561
1669.82,-0.17592
1669.83,-0.17503
1669.84,-0.17534
1669.85,-0.17596
1669.86,-0.17484
1669.87,-0.17536
1669.88,-0.17566
1669.89,-0.17555
1669.9,-0.17557
1669.91,-0.17612
1669.92,-0.17601
1669.93,-0.17662
1669.94,-0.17669
1669.95,-0.17738
1669.96,-0.17645
1669.97,-0.17739
1669.98,-0.17747
1669.99,-0.17727
1670,-0.17611
1670.01,-0.17657
1670.02,-0.17627
1670.03,-0.17588
1670.04,-0.17465
1670.05,-0.17445
1670.06,-0.17375
1670.07,-0.17382
1670.08,-0.17327
1670.09,-0.17345
1670.1,-0.17362
1670.11,-0.1736
1670.12,-0.17348
1670.13,-0.17357
1670.14,-0.17335
1670.15,-0.17338
1670.16,-0.17338
1670.17,-0.1727
1670.18,-0.17322
1670.19,-0.17325
1670.2,-0.1736
1670.21,-0.17437
1670.22,-0.17474
1670.23,-0.1744
1670.24,-0.17541
1670.25,-0.1757
1670.26,-0.17559
1670.27,-0.17543
1670.28,-0.17589
1670.29,-0.17661
1670.3,-0.17594
1670.31,-0.17657
1670.32,-0.17624
1670.33,-0.17637
1670.34,-0.17578
1670.35,-0.17589
1670.36,-0.17458
1670.37,-0.17404
1670.38,-0.17311
1670.39,-0.17262
1670.4,-0.1722
1670.41,-0.17201
1670.42,-0.17157
1670.43,-0.17172
1670.44,-0.17125
1670.45,-0.17158
1670.46,-0.17179
1670.47,-0.17208
1670.48,-0.17143
1670.49,-0.17178
1670.5,-0.17137
1670.51,-0.17129
1670.52,-0.17156
1670.53,-0.17121
1670.54,-0.17144
1670.55,-0.17191
1670.56,-0.17285
1670.57,-0.17273
1670.58,-0.17366
1670.59,-0.17391
1670.6,-0.17464
1670.61,-0.1746
1670.62,-0.17462
1670.63,-0.17501
1670.64,-0.17487
1670.65,-0.17453
1670.66,-0.17465
1670.67,-0.17357
1670.68,-0.1737
1670.69,-0.17284
1670.7,-0.17312
1670.71,-0.17178
1670.72,-0.17185
1670.73,-0.17147
1670.74,-0.17129
1670.75,-0.1711
1670.76,-0.17127
1670.77,-0.17148
1670.78,-0.17141
1670.79,-0.17211
1670.8,-0.17234
1670.81,-0.17212
1670.82,-0.17296
1670.83,-0.17286
1670.84,-0.17316
1670.85,-0.17349
1670.86,-0.17398
1670.87,-0.1746
1670.88,-0.17464
1670.89,-0.17505
1670.9,-0.175
1670.91,-0.1749
1670.92,-0.17409
1670.93,-0.17396
1670.94,-0.17371
1670.95,-0.17379
1670.96,-0.17292
1670.97,-0.17256
1670.98,-0.17258
1670.99,-0.17303
1671,-0.17297
1671.01,-0.17296
1671.02,-0.17363
1671.03,-0.1733
1671.04,-0.17362
1671.05,-0.17349
1671.06,-0.17347
1671.07,-0.17425
1671.08,-0.17339
1671.09,-0.17333
1671.1,-0.17428
1671.11,-0.17345
1671.12,-0.17387
1671.13,-0.17329
1671.14,-0.17388
1671.15,-0.17456
1671.16,-0.17466
1671.17,-0.17518
1671.18,-0.17397
1671.19,-0.17405
1671.2,-0.17927
1671.21,-0.19926
1671.22,-0.24234
1671.23,-0.3158
1671.24,-0.42738
1671.25,-0.57638
1671.26,-0.74115
1671.27,-0.90017
1671.28,-1.03801
1671.29,-1.12562
1671.3,-1.15385
1671.31,-1.10566
1671.32,-0.99503
1671.33,-0.84206
1671.34,-0.6795
1671.35,-0.52575
1671.36,-0.4017
1671.37,-0.30929
1671.38,-0.24704
1671.39,-0.20706
1671.4,-0.18672
1671.41,-0.17742
1671.42,-0.17376
1671.43,-0.17312
1671.44,-0.17167
1671.45,-0.1722
1671.46,-0.1717
1671.47,-0.1718
1671.48,-0.17177
1671.49,-0.17128
1671.5,-0.17153
1671.51,-0.17095
1671.52,-0.17093
1671.53,-0.17139
1671.54,-0.17121
1671.55,-0.17163
1671.56,-0.17169
1671.57,-0.17209
1671.58,-0.1731
1671.59,-0.17304
1671.6,-0.17284
1671.61,-0.17329
1671.62,-0.17279
1671.63,-0.17301
1671.64,-0.17283
1671.65,-0.17239
1671.66,-0.17263
1671.67,-0.17276
1671.68,-0.17239
1671.69,-0.17201
1671.7,-0.17242
1671.71,-0.17186
1671.72,-0.17082
1671.73,-0.17166
1671.74,-0.17058
1671.75,-0.17084
1671.76,-0.17066
1671.77,-0.17091
1671.78,-0.17131
1671.79,-0.17094
1671.8,-0.17132
1671.81,-0.17141
1671.82,-0.1712
1671.83,-0.17105
1671.84,-0.17112
1671.85,-0.17112
1671.86,-0.17061
1671.87,-0.17119
1671.88,-0.17127
1671.89,-0.17184
1671.9,-0.17132
1671.91,-0.17208
1671.92,-0.17195
1671.93,-0.17235
1671.94,-0.17146
1671.95,-0.17186
1671.96,-0.17136
1671.97,-0.17093
1671.98,-0.17053
1671.99,-0.1711
1672,-0.17116
1672.01,-0.17169
1672.02,-0.17137
1672.03,-0.17151
1672.04,-0.17163
1672.05,-0.17095
1672.06,-0.17156
1672.07,-0.17107
1672.08,-0.17109
1672.09,-0.17111
1672.1,-0.17151
1672.11,-0.17199
1672.12,-0.17239
1672.13,-0.17271
1672.14,-0.17332
1672.15,-0.1737
1672.16,-0.17416
1672.17,-0.17383
1672.18,-0.17469
1672.19,-0.1745
1672.2,-0.17453
1672.21,-0.17434
1672.22,-0.17396
1672.23,-0.1744
1672.24,-0.17364
1672.25,-0.17394
1672.26,-0.17311
1672.27,-0.17283
1672.28,-0.17229
1672.29,-0.17186
1672.3,-0.17139
1672.31,-0.17156
1672.32,-0.17159
1672.33,-0.17152
1672.34,-0.17132
1672.35,-0.17209
1672.36,-0.17204
1672.37,-0.17171
1672.38,-0.17124
1672.39,-0.17154
1672.4,-0.17131
1672.41,-0.17141
1672.42,-0.17167
1672.43,-0.17176
1672.44,-0.17198
1672.45,-0.17242
1672.46,-0.17335
1672.47,-0.17292
1672.48,-0.17283
1672.49,-0.17329
1672.5,-0.1732
1672.51,-0.1722
1672.52,-0.17277
1672.53,-0.17171
1672.54,-0.17138
1672.55,-0.17227
1672.56,-0.17168
1672.57,-0.17223
1672.58,-0.17242
1672.59,-0.17232
1672.6,-0.17238
1672.61,-0.17229
1672.62,-0.17274
1672.63,-0.17275
1672.64,-0.17347
1672.65,-0.17427
1672.66,-0.17437
1672.67,-0.17569
1672.68,-0.17655
1672.69,-0.17642
1672.7,-0.17738
1672.71,-0.17661
1672.72,-0.17611
1672.73,-0.17501
1672.74,-0.17437
1672.75,-0.17364
1672.76,-0.17285
1672.77,-0.17271
1672.78,-0.17231
1672.79,-0.17195
1672.8,-0.17173
1672.81,-0.17185
1672.82,-0.17186
1672.83,-0.17119
1672.84,-0.17119
1672.85,-0.17108
1672.86,-0.17081
1672.87,-0.17128
1672.88,-0.17136
1672.89,-0.17089
1672.9,-0.17189
1672.91,-0.17156
1672.92,-0.17255
1672.93,-0.17248
1672.94,-0.1728
1672.95,-0.17269
1672.96,-0.17308
1672.97,-0.17314
1672.98,-0.1733
1672.99,-0.17368
1673,-0.17358
1673.01,-0.17396
1673.02,-0.17393
1673.03,-0.17428
1673.04,-0.17415
1673.05,-0.17428
1673.06,-0.17446
1673.07,-0.17514
1673.08,-0.17513
1673.09,-0.17659
1673.1,-0.17667
1673.11,-0.17777
1673.12,-0.1779
1673.13,-0.1789
1673.14,-0.1782
1673.15,-0.17781
1673.16,-0.17628
1673.17,-0.17566
1673.18,-0.17461
1673.19,-0.17375
1673.2,-0.17251
1673.21,-0.17268
1673.22,-0.17169
1673.23,-0.17241
1673.24,-0.17135
1673.25,-0.17312
1673.26,-0.17194
1673.27,-0.17211
1673.28,-0.17204
1673.29,-0.17171
1673.3,-0.17188
1673.31,-0.17202
1673.32,-0.17138
1673.33,-0.17191
1673.34,-0.17248
1673.35,-0.17286
1673.36,-0.17373
1673.37,-0.1739
1673.38,-0.17491
1673.39,-0.17507
1673.4,-0.17473
1673.41,-0.17568
1673.42,-0.17594
1673.43,-0.17632
1673.44,-0.17733
1673.45,-0.17753
1673.46,-0.17805
1673.47,-0.17779
1673.48,-0.17846
1673.49,-0.17763
1673.5,-0.17649
1673.51,-0.17496
1673.52,-0.17396
1673.53,-0.17339
1673.54,-0.17247
1673.55,-0.17129
1673.56,-0.1711
1673.57,-0.17127
1673.58,-0.17087
1673.59,-0.17078
1673.6,-0.17047
1673.61,-0.17063
1673.62,-0.17069
1673.63,-0.17004
1673.64,-0.17045
1673.65,-0.1696
1673.66,-0.17041
1673.67,-0.17051
1673.68,-0.17059
1673.69,-0.17077
1673.7,-0.17064
1673.71,-0.1717
1673.72,-0.17217
1673.73,-0.17231
1673.74,-0.17295
1673.75,-0.17332
1673.76,-0.1751
1673.77,-0.17522
1673.78,-0.17554
1673.79,-0.17547
1673.8,-0.17598
1673.81,-0.1752
1673.82,-0.17476
1673.83,-0.17338
1673.84,-0.17221
1673.85,-0.17151
1673.86,-0.17089
1673.87,-0.16983
1673.88,-0.16989
1673.89,-0.16958
1673.9,-0.16947
1673.91,-0.16991
1673.92,-0.16973
1673.93,-0.16995
1673.94,-0.1699
1673.95,-0.16973
1673.96,-0.17024
1673.97,-0.17022
1673.98,-0.17062
1673.99,-0.17152
1674,-0.17208
1674.01,-0.17263
1674.02,-0.17381
1674.03,-0.17445
1674.04,-0.1747
1674.05,-0.17452
1674.06,-0.17402
1674.07,-0.17296
1674.08,-0.17229
1674.09,-0.1722
1674.1,-0.17132
1674.11,-0.1712
1674.12,-0.17129
1674.13,-0.17051
1674.14,-0.17083
1674.15,-0.17091
1674.16,-0.17085
1674.17,-0.17125
1674.18,-0.1707
1674.19,-0.1703
1674.2,-0.17148
1674.21,-0.17097
1674.22,-0.17111
1674.23,-0.17242
1674.24,-0.17264
1674.25,-0.17293
1674.26,-0.17367
1674.27,-0.17479
1674.28,-0.17617
1674.29,-0.17633
1674.3,-0.17495
1674.31,-0.17277
1674.32,-0.17621
1674.33,-0.20679
1674.34,-0.28828
1674.35,-0.43591
1674.36,-0.66691
1674.37,-0.97338
1674.38,-1.29784
1674.39,-1.63694
1674.4,-1.91378
1674.41,-2.09006
1674.42,-2.16146
1674.43,-2.11717
1674.44,-1.95572
1674.45,-1.69645
1674.46,-1.37373
1674.47,-1.05331
1674.48,-0.76966
1674.49,-0.54303
1674.5,-0.38329
1674.51,-0.27892
1674.52,-0.22087
1674.53,-0.19208
1674.54,-0.1809
1674.55,-0.1744
1674.56,-0.17219
1674.57,-0.17127
1674.58,-0.17032
1674.59,-0.17122
1674.6,-0.17065
1674.61,-0.16987
1674.62,-0.16995
1674.63,-0.17012
1674.64,-0.16934
1674.65,-0.16914
1674.66,-0.16943
1674.67,-0.16927
1674.68,-0.17006
1674.69,-0.16991
1674.7,-0.17083
1674.71,-0.17097
1674.72,-0.17103
1674.73,-0.17125
1674.74,-0.17083
1674.75,-0.17195
1674.76,-0.17175
1674.77,-0.17102
1674.78,-0.17196
1674.79,-0.17141
1674.8,-0.17143
1674.81,-0.17183
1674.82,-0.17097
1674.83,-0.17174
1674.84,-0.17057
1674.85,-0.17021
1674.86,-0.16951
1674.87,-0.16893
1674.88,-0.16945
1674.89,-0.16858
1674.9,-0.16942
1674.91,-0.16869
1674.92,-0.16923
1674.93,-0.16894
1674.94,-0.16852
1674.95,-0.16905
1674.96,-0.16843
1674.97,-0.16809
1674.98,-0.16794
1674.99,-0.16826
1675,-0.16799
1675.01,-0.16829
1675.02,-0.16829
1675.03,-0.16854
1675.04,-0.16852
1675.05,-0.16899
1675.06,-0.16898
1675.07,-0.1688
1675.08,-0.1685
1675.09,-0.16783
1675.1,-0.16775
1675.11,-0.16766
1675.12,-0.16715
1675.13,-0.16727
1675.14,-0.16762
1675.15,-0.1671
1675.16,-0.16775
1675.17,-0.16704
1675.18,-0.16698
1675.19,-0.16627
1675.2,-0.16641
1675.21,-0.16611
1675.22,-0.16645
1675.23,-0.1659
1675.24,-0.16651
1675.25,-0.16677
1675.26,-0.16677
1675.27,-0.16737
1675.28,-0.16774
1675.29,-0.16821
1675.3,-0.16835
1675.31,-0.16822
1675.32,-0.16871
1675.33,-0.16929
1675.34,-0.16979
1675.35,-0.16956
1675.36,-0.16995
1675.37,-0.17022
1675.38,-0.16987
1675.39,-0.16984
1675.4,-0.16885
1675.41,-0.16863
1675.42,-0.16782
1675.43,-0.16691
1675.44,-0.1673
1675.45,-0.16656
1675.46,-0.16648
1675.47,-0.16656
1675.48,-0.16647
1675.49,-0.16673
1675.5,-0.16645
1675.51,-0.16661
1675.52,-0.16636
1675.53,-0.1662
1675.54,-0.16593
1675.55,-0.16587
1675.56,-0.16636
1675.57,-0.16638
1675.58,-0.16711
1675.59,-0.16739
1675.6,-0.1677
1675.61,-0.16855
1675.62,-0.16812
1675.63,-0.16861
1675.64,-0.16835
1675.65,-0.16813
1675.66,-0.16787
1675.67,-0.16825
1675.68,-0.16803
1675.69,-0.16804
1675.7,-0.16849
1675.71,-0.16752
1675.72,-0.16914
1675.73,-0.16836
1675.74,-0.16787
1675.75,-0.16847
1675.76,-0.16849
1675.77,-0.16908
1675.78,-0.16872
1675.79,-0.16931
1675.8,-0.17021
1675.81,-0.17089
1675.82,-0.17254
1675.83,-0.17294
1675.84,-0.1739
1675.85,-0.17342
1675.86,-0.17356
1675.87,-0.17344
1675.88,-0.1726
1675.89,-0.17242
1675.9,-0.17184
1675.91,-0.17086
1675.92,-0.17063
1675.93,-0.1697
1675.94,-0.16946
1675.95,-0.16897
1675.96,-0.16827
1675.97,-0.16743
1675.98,-0.16737
1675.99,-0.16683
1676,-0.16666
1676.01,-0.16672
1676.02,-0.16674
1676.03,-0.16664
1676.04,-0.16683
1676.05,-0.16676
1676.06,-0.1673
1676.07,-0.16688
1676.08,-0.16754
1676.09,-0.16729
1676.1,-0.16715
1676.11,-0.16742
1676.12,-0.16774
1676.13,-0.16848
1676.14,-0.16801
1676.15,-0.16867
1676.16,-0.16852
1676.17,-0.16886
1676.18,-0.16876
1676.19,-0.16856
1676.2,-0.16817
1676.21,-0.1678
1676.22,-0.16882
1676.23,-0.1673
1676.24,-0.1696
1676.25,-0.1711
1676.26,-0.17193
1676.27,-0.17244
1676.28,-0.17309
1676.29,-0.17279
1676.3,-0.17238
1676.31,-0.17128
1676.32,-0.17073
1676.33,-0.16993
1676.34,-0.16831
1676.35,-0.16812
1676.36,-0.1669
1676.37,-0.1667
1676.38,-0.16614
1676.39,-0.1654
1676.4,-0.16534
1676.41,-0.16539
1676.42,-0.16451
1676.43,-0.16504
1676.44,-0.16453
1676.45,-0.16404
1676.46,-0.16487
1676.47,-0.16463
1676.48,-0.16469
1676.49,-0.16523
1676.5,-0.16599
1676.51,-0.16649
1676.52,-0.16655
1676.53,-0.1665
1676.54,-0.16723
1676.55,-0.16801
1676.56,-0.16879
1676.57,-0.16916
1676.58,-0.17048
1676.59,-0.17148
1676.6,-0.17202
1676.61,-0.1727
1676.62,-0.17318
1676.63,-0.17393
1676.64,-0.17334
1676.65,-0.17286
1676.66,-0.17189
1676.67,-0.17057
1676.68,-0.17017
1676.69,-0.16889
1676.7,-0.16752
1676.71,-0.16692
1676.72,-0.16665
1676.73,-0.16571
1676.74,-0.16511
1676.75,-0.16463
1676.76,-0.16418
1676.77,-0.16412
1676.78,-0.16444
1676.79,-0.16412
1676.8,-0.16424
1676.81,-0.16439
1676.82,-0.16497
1676.83,-0.16453
1676.84,-0.16501
1676.85,-0.16448
1676.86,-0.16505
1676.87,-0.16525
1676.88,-0.16538
1676.89,-0.16606
1676.9,-0.16698
1676.91,-0.16837
1676.92,-0.16922
1676.93,-0.17053
1676.94,-0.17159
1676.95,-0.1717
1676.96,-0.17131
1676.97,-0.17207
1676.98,-0.17124
1676.99,-0.17034
1677,-0.16917
1677.01,-0.16821
1677.02,-0.16694
1677.03,-0.1663
1677.04,-0.16608
1677.05,-0.16589
1677.06,-0.16545
1677.07,-0.16558
1677.08,-0.16498
1677.09,-0.16503
1677.1,-0.1644
1677.11,-0.1647
1677.12,-0.16486
1677.13,-0.16534
1677.14,-0.16585
1677.15,-0.16697
1677.16,-0.16731
1677.17,-0.16887
1677.18,-0.16894
1677.19,-0.17026
1677.2,-0.17022
1677.21,-0.16991
1677.22,-0.17147
1677.23,-0.16961
1677.24,-0.16914
1677.25,-0.16804
1677.26,-0.16917
1677.27,-0.1683
1677.28,-0.16819
1677.29,-0.16791
1677.3,-0.16788
1677.31,-0.16782
1677.32,-0.16838
1677.33,-0.16761
1677.34,-0.16862
1677.35,-0.1683
1677.36,-0.16833
1677.37,-0.1687
1677.38,-0.16975
1677.39,-0.16959
1677.4,-0.17013
1677.41,-0.17066
1677.42,-0.17158
1677.43,-0.17339
1677.44,-0.17457
1677.45,-0.17384
1677.46,-0.1704
1677.47,-0.17456
1677.48,-0.20998
1677.49,-0.30653
1677.5,-0.49166
1677.51,-0.76671
1677.52,-1.1885
1677.53,-1.66212
1677.54,-2.12883
1677.55,-2.56832
1677.56,-2.90782
1677.57,-3.09549
1677.58,-3.12085
1677.59,-2.98254
1677.6,-2.69863
1677.61,-2.29507
1677.62,-1.84834
1677.63,-1.40294
1677.64,-1.01087
1677.65,-0.67008
1677.66,-0.45303
1677.67,-0.31228
1677.68,-0.23312
1677.69,-0.19567
1677.7,-0.17922
1677.71,-0.17261
1677.72,-0.16991
1677.73,-0.16894
1677.74,-0.16729
1677.75,-0.16669
1677.76,-0.16678
1677.77,-0.16574
1677.78,-0.16561
1677.79,-0.16576
1677.8,-0.16553
1677.81,-0.16617
1677.82,-0.16568
1677.83,-0.16606
1677.84,-0.16575
1677.85,-0.16617
1677.86,-0.16579
1677.87,-0.16597
1677.88,-0.16533
1677.89,-0.16598
1677.9,-0.16631
1677.91,-0.16669
1677.92,-0.16691
1677.93,-0.16734
1677.94,-0.16827
1677.95,-0.16858
1677.96,-0.16892
1677.97,-0.16915
1677.98,-0.16975
1677.99,-0.16955
1678,-0.16976
1678.01,-0.16958
1678.02,-0.16882
1678.03,-0.16886
1678.04,-0.1687
1678.05,-0.1683
1678.06,-0.16838
1678.07,-0.16779
1678.08,-0.16722
1678.09,-0.1666
1678.1,-0.16643
1678.11,-0.16596
1678.12,-0.1659
1678.13,-0.16613
1678.14,-0.16569
1678.15,-0.16615
1678.16,-0.16597
1678.17,-0.16584
1678.18,-0.16588
1678.19,-0.16563
1678.2,-0.16568
1678.21,-0.16522
1678.22,-0.16523
1678.23,-0.16542
1678.24,-0.16562
1678.25,-0.16586
1678.26,-0.16632
1678.27,-0.16647
1678.28,-0.16668
1678.29,-0.16683
1678.3,-0.16646
1678.31,-0.16644
1678.32,-0.16602
1678.33,-0.16585
1678.34,-0.16557
1678.35,-0.16564
1678.36,-0.16572
1678.37,-0.16522
1678.38,-0.16549
1678.39,-0.16531
1678.4,-0.16558
1678.41,-0.16528
1678.42,-0.16447
1678.43,-0.1652
1678.44,-0.16456
1678.45,-0.16465
1678.46,-0.16513
1678.47,-0.16518
1678.48,-0.16511
1678.49,-0.16648
1678.5,-0.16683
1678.51,-0.16732
1678.52,-0.16816
1678.53,-0.16891
1678.54,-0.16885
1678.55,-0.16942
1678.56,-0.16985
1678.57,-0.17027
1678.58,-0.17074
1678.59,-0.17011
1678.6,-0.17079
1678.61,-0.16985
1678.62,-0.1696
1678.63,-0.16885
1678.64,-0.16815
1678.65,-0.16766
1678.66,-0.16651
1678.67,-0.1656
1678.68,-0.16496
1678.69,-0.16527
1678.7,-0.16492
1678.71,-0.1655
1678.72,-0.16509
1678.73,-0.16478
1678.74,-0.16456
1678.75,-0.16415
1678.76,-0.1644
1678.77,-0.1645
1678.78,-0.16435
1678.79,-0.16399
1678.8,-0.16475
1678.81,-0.16497
1678.82,-0.16599
1678.83,-0.16626
1678.84,-0.16692
1678.85,-0.16629
1678.86,-0.16662
1678.87,-0.16662
1678.88,-0.1665
1678.89,-0.16637
1678.9,-0.16558
1678.91,-0.16585
1678.92,-0.16516
1678.93,-0.16532
1678.94,-0.16503
1678.95,-0.16554
1678.96,-0.16539
1678.97,-0.16511
1678.98,-0.16505
1678.99,-0.16534
1679,-0.166
1679.01,-0.16618
1679.02,-0.16733
1679.03,-0.16809
1679.04,-0.16995
1679.05,-0.17088
1679.06,-0.17257
1679.07,-0.17348
1679.08,-0.1743
1679.09,-0.17358
1679.1,-0.17301
1679.11,-0.17274
1679.12,-0.17082
1679.13,-0.17035
1679.14,-0.16877
1679.15,-0.16794
1679.16,-0.16648
1679.17,-0.16622
1679.18,-0.16548
1679.19,-0.16416
1679.2,-0.16409
1679.21,-0.16326
1679.22,-0.16275
1679.23,-0.16266
1679.24,-0.1624
1679.25,-0.1628
1679.26,-0.16248
1679.27,-0.16232
1679.28,-0.1634
1679.29,-0.16309
1679.3,-0.16341
1679.31,-0.16329
1679.32,-0.16441
1679.33,-0.163
1679.34,-0.16422
1679.35,-0.16467
1679.36,-0.16528
1679.37,-0.16601
1679.38,-0.16683
1679.39,-0.16618
1679.4,-0.16689
1679.41,-0.16689
1679.42,-0.16662
1679.43,-0.16698
1679.44,-0.16655
1679.45,-0.16706
1679.46,-0.1679
1679.47,-0.16923
1679.48,-0.17042
1679.49,-0.17202
1679.5,-0.17365
1679.51,-0.17424
1679.52,-0.17392
1679.53,-0.1735
1679.54,-0.17258
1679.55,-0.17128
1679.56,-0.16906
1679.57,-0.16781
1679.58,-0.16658
1679.59,-0.16504
1679.6,-0.16439
1679.61,-0.16361
1679.62,-0.16323
1679.63,-0.16277
1679.64,-0.16213
1679.65,-0.16183
1679.66,-0.16178
1679.67,-0.16147
1679.68,-0.16123
1679.69,-0.16117
1679.7,-0.1613
1679.71,-0.16129
1679.72,-0.16186
1679.73,-0.1623
1679.74,-0.16256
1679.75,-0.1634
1679.76,-0.16345
1679.77,-0.16393
1679.78,-0.16527
1679.79,-0.16562
1679.8,-0.1672
1679.81,-0.16858
1679.82,-0.16925
1679.83,-0.17127
1679.84,-0.17241
1679.85,-0.17329
1679.86,-0.1741
1679.87,-0.17383
1679.88,-0.17354
1679.89,-0.17227
1679.9,-0.17042
1679.91,-0.16828
1679.92,-0.16672
1679.93,-0.16514
1679.94,-0.163
1679.95,-0.16222
1679.96,-0.16137
1679.97,-0.16068
1679.98,-0.15925
1679.99,-0.15946
1680,-0.15867
