3/04/2024,2:59:04 PM
Software,STS IL/PDL,IL,Normal,1.3.3.0
TSL,SANTEC,TSL-570,23020004,0022.0017.0009
PowerMeter,SANTEC,MPM-210H,23020023,Ver.1.19
,Module0,MPM-211,23020025M211,Ver.1.22
Power Monitor,DAQ
Start,1600,nm
Stop,1680,nm
Step,0.01,nm
Speed,20,nm/s
Source Power,10,dBm
Averaging Time,0.5,msec
Power meter range,23020025M211,(Ch1),-30～+10dBm,-40～ 0dBm
--HEADER END--
--DATA START--
Wavelength(nm),IL_M1_S0_CH1
1600,-0.07749
1600.01,-0.07752
1600.02,-0.07772
1600.03,-0.07783
1600.04,-0.07768
1600.05,-0.07722
1600.06,-0.07757
1600.07,-0.07714
1600.08,-0.0779
1600.09,-0.07677
1600.1,-0.0774
1600.11,-0.07794
1600.12,-0.07764
1600.13,-0.07777
1600.14,-0.07774
1600.15,-0.07808
1600.16,-0.07768
1600.17,-0.07732
1600.18,-0.07725
1600.19,-0.07778
1600.2,-0.07771
1600.21,-0.07758
1600.22,-0.07666
1600.23,-0.0785
1600.24,-0.07743
1600.25,-0.07842
1600.26,-0.07768
1600.27,-0.07824
1600.28,-0.07771
1600.29,-0.07748
1600.3,-0.07736
1600.31,-0.07798
1600.32,-0.07767
1600.33,-0.0781
1600.34,-0.0778
1600.35,-0.07815
1600.36,-0.07766
1600.37,-0.0772
1600.38,-0.0777
1600.39,-0.0776
1600.4,-0.07745
1600.41,-0.07743
1600.42,-0.07769
1600.43,-0.07766
1600.44,-0.07791
1600.45,-0.07738
1600.46,-0.07734
1600.47,-0.07758
1600.48,-0.07726
1600.49,-0.07744
1600.5,-0.07727
1600.51,-0.07699
1600.52,-0.07716
1600.53,-0.07676
1600.54,-0.0767
1600.55,-0.07719
1600.56,-0.07732
1600.57,-0.07686
1600.58,-0.07736
1600.59,-0.07763
1600.6,-0.07662
1600.61,-0.07688
1600.62,-0.07678
1600.63,-0.07619
1600.64,-0.07643
1600.65,-0.07662
1600.66,-0.07655
1600.67,-0.07677
1600.68,-0.07676
1600.69,-0.07657
1600.7,-0.07646
1600.71,-0.0772
1600.72,-0.0761
1600.73,-0.07642
1600.74,-0.07583
1600.75,-0.07655
1600.76,-0.07586
1600.77,-0.07638
1600.78,-0.07674
1600.79,-0.07627
1600.8,-0.07666
1600.81,-0.07629
1600.82,-0.07644
1600.83,-0.07641
1600.84,-0.07623
1600.85,-0.07566
1600.86,-0.07635
1600.87,-0.07574
1600.88,-0.07676
1600.89,-0.07615
1600.9,-0.07657
1600.91,-0.07712
1600.92,-0.0761
1600.93,-0.07671
1600.94,-0.07654
1600.95,-0.07703
1600.96,-0.07649
1600.97,-0.07627
1600.98,-0.07667
1600.99,-0.07642
1601,-0.07684
1601.01,-0.07712
1601.02,-0.07648
1601.03,-0.0777
1601.04,-0.07737
1601.05,-0.07705
1601.06,-0.07681
1601.07,-0.0775
1601.08,-0.07712
1601.09,-0.07697
1601.1,-0.07761
1601.11,-0.07764
1601.12,-0.07804
1601.13,-0.07779
1601.14,-0.07766
1601.15,-0.07762
1601.16,-0.07821
1601.17,-0.07768
1601.18,-0.07813
1601.19,-0.07826
1601.2,-0.07781
1601.21,-0.07818
1601.22,-0.07853
1601.23,-0.07833
1601.24,-0.07839
1601.25,-0.07878
1601.26,-0.07825
1601.27,-0.07927
1601.28,-0.07836
1601.29,-0.07836
1601.3,-0.07845
1601.31,-0.07826
1601.32,-0.07879
1601.33,-0.07861
1601.34,-0.07878
1601.35,-0.07899
1601.36,-0.07894
1601.37,-0.07935
1601.38,-0.07869
1601.39,-0.07877
1601.4,-0.07848
1601.41,-0.07851
1601.42,-0.07863
1601.43,-0.07864
1601.44,-0.07887
1601.45,-0.07848
1601.46,-0.07887
1601.47,-0.07927
1601.48,-0.07904
1601.49,-0.0787
1601.5,-0.0787
1601.51,-0.07922
1601.52,-0.07856
1601.53,-0.07844
1601.54,-0.0783
1601.55,-0.07877
1601.56,-0.07859
1601.57,-0.07934
1601.58,-0.07833
1601.59,-0.07896
1601.6,-0.07863
1601.61,-0.07858
1601.62,-0.07798
1601.63,-0.07824
1601.64,-0.07814
1601.65,-0.07802
1601.66,-0.07802
1601.67,-0.07747
1601.68,-0.07805
1601.69,-0.07803
1601.7,-0.07807
1601.71,-0.07773
1601.72,-0.07819
1601.73,-0.07758
1601.74,-0.07756
1601.75,-0.07679
1601.76,-0.07752
1601.77,-0.07746
1601.78,-0.07731
1601.79,-0.07723
1601.8,-0.07729
1601.81,-0.07778
1601.82,-0.07707
1601.83,-0.07744
1601.84,-0.07683
1601.85,-0.07757
1601.86,-0.0765
1601.87,-0.07688
1601.88,-0.07677
1601.89,-0.07661
1601.9,-0.07657
1601.91,-0.07748
1601.92,-0.07666
1601.93,-0.07735
1601.94,-0.0767
1601.95,-0.07698
1601.96,-0.07651
1601.97,-0.07648
1601.98,-0.07617
1601.99,-0.07594
1602,-0.07649
1602.01,-0.07668
1602.02,-0.07633
1602.03,-0.07654
1602.04,-0.07685
1602.05,-0.07696
1602.06,-0.07673
1602.07,-0.07639
1602.08,-0.07646
1602.09,-0.0769
1602.1,-0.07665
1602.11,-0.07686
1602.12,-0.07665
1602.13,-0.07693
1602.14,-0.07659
1602.15,-0.07689
1602.16,-0.07734
1602.17,-0.07693
1602.18,-0.07651
1602.19,-0.07704
1602.2,-0.07707
1602.21,-0.07719
1602.22,-0.07719
1602.23,-0.07751
1602.24,-0.07711
1602.25,-0.0783
1602.26,-0.0777
1602.27,-0.07725
1602.28,-0.07812
1602.29,-0.07743
1602.3,-0.07774
1602.31,-0.07807
1602.32,-0.07767
1602.33,-0.07795
1602.34,-0.07864
1602.35,-0.07833
1602.36,-0.07844
1602.37,-0.07861
1602.38,-0.079
1602.39,-0.07906
1602.4,-0.07844
1602.41,-0.07843
1602.42,-0.07893
1602.43,-0.07845
1602.44,-0.07908
1602.45,-0.07933
1602.46,-0.07881
1602.47,-0.08028
1602.48,-0.07952
1602.49,-0.07951
1602.5,-0.07933
1602.51,-0.07957
1602.52,-0.07995
1602.53,-0.07917
1602.54,-0.07979
1602.55,-0.07948
1602.56,-0.08019
1602.57,-0.08031
1602.58,-0.08015
1602.59,-0.08019
1602.6,-0.08088
1602.61,-0.08011
1602.62,-0.08019
1602.63,-0.0801
1602.64,-0.08001
1602.65,-0.08031
1602.66,-0.08003
1602.67,-0.08027
1602.68,-0.07988
1602.69,-0.08087
1602.7,-0.08051
1602.71,-0.08071
1602.72,-0.08044
1602.73,-0.08074
1602.74,-0.08019
1602.75,-0.08011
1602.76,-0.08073
1602.77,-0.0799
1602.78,-0.08071
1602.79,-0.0801
1602.8,-0.08052
1602.81,-0.08043
1602.82,-0.0805
1602.83,-0.08073
1602.84,-0.07999
1602.85,-0.08001
1602.86,-0.08024
1602.87,-0.07965
1602.88,-0.08041
1602.89,-0.07977
1602.9,-0.07962
1602.91,-0.07982
1602.92,-0.08049
1602.93,-0.07979
1602.94,-0.0803
1602.95,-0.07988
1602.96,-0.07971
1602.97,-0.07958
1602.98,-0.07962
1602.99,-0.07964
1603,-0.07905
1603.01,-0.07943
1603.02,-0.07949
1603.03,-0.07959
1603.04,-0.07935
1603.05,-0.07959
1603.06,-0.07935
1603.07,-0.07934
1603.08,-0.07879
1603.09,-0.07899
1603.1,-0.07901
1603.11,-0.07881
1603.12,-0.07911
1603.13,-0.0789
1603.14,-0.07911
1603.15,-0.07943
1603.16,-0.0792
1603.17,-0.07892
1603.18,-0.0789
1603.19,-0.07853
1603.2,-0.07875
1603.21,-0.07876
1603.22,-0.07857
1603.23,-0.07841
1603.24,-0.07865
1603.25,-0.07856
1603.26,-0.07917
1603.27,-0.0786
1603.28,-0.07887
1603.29,-0.0782
1603.3,-0.07858
1603.31,-0.07838
1603.32,-0.07812
1603.33,-0.07869
1603.34,-0.07906
1603.35,-0.07834
1603.36,-0.07917
1603.37,-0.07905
1603.38,-0.07865
1603.39,-0.07934
1603.4,-0.07836
1603.41,-0.07885
1603.42,-0.07846
1603.43,-0.07829
1603.44,-0.07888
1603.45,-0.07952
1603.46,-0.07772
1603.47,-0.07987
1603.48,-0.07901
1603.49,-0.07973
1603.5,-0.07897
1603.51,-0.079
1603.52,-0.07921
1603.53,-0.07891
1603.54,-0.07896
1603.55,-0.0788
1603.56,-0.07967
1603.57,-0.07915
1603.58,-0.07941
1603.59,-0.07969
1603.6,-0.07965
1603.61,-0.0794
1603.62,-0.07961
1603.63,-0.07927
1603.64,-0.07913
1603.65,-0.07955
1603.66,-0.07899
1603.67,-0.07991
1603.68,-0.07904
1603.69,-0.08008
1603.7,-0.07999
1603.71,-0.08029
1603.72,-0.07992
1603.73,-0.0795
1603.74,-0.07991
1603.75,-0.0793
1603.76,-0.0802
1603.77,-0.07946
1603.78,-0.08015
1603.79,-0.07978
1603.8,-0.08022
1603.81,-0.08028
1603.82,-0.08024
1603.83,-0.07968
1603.84,-0.08038
1603.85,-0.07982
1603.86,-0.07995
1603.87,-0.07941
1603.88,-0.07995
1603.89,-0.07965
1603.9,-0.08019
1603.91,-0.08023
1603.92,-0.08053
1603.93,-0.08014
1603.94,-0.0804
1603.95,-0.08059
1603.96,-0.08021
1603.97,-0.07964
1603.98,-0.08016
1603.99,-0.0799
1604,-0.07983
1604.01,-0.08016
1604.02,-0.08007
1604.03,-0.07982
1604.04,-0.08081
1604.05,-0.08028
1604.06,-0.08028
1604.07,-0.08016
1604.08,-0.08011
1604.09,-0.07947
1604.1,-0.07982
1604.11,-0.08019
1604.12,-0.0797
1604.13,-0.08004
1604.14,-0.08025
1604.15,-0.08042
1604.16,-0.08006
1604.17,-0.07972
1604.18,-0.08
1604.19,-0.08007
1604.2,-0.07958
1604.21,-0.07941
1604.22,-0.0796
1604.23,-0.07939
1604.24,-0.07997
1604.25,-0.08014
1604.26,-0.08003
1604.27,-0.07998
1604.28,-0.07988
1604.29,-0.07988
1604.3,-0.08004
1604.31,-0.07954
1604.32,-0.07984
1604.33,-0.07981
1604.34,-0.07978
1604.35,-0.07987
1604.36,-0.08017
1604.37,-0.08017
1604.38,-0.07989
1604.39,-0.0804
1604.4,-0.0799
1604.41,-0.07978
1604.42,-0.07972
1604.43,-0.07972
1604.44,-0.07937
1604.45,-0.07945
1604.46,-0.07947
1604.47,-0.07981
1604.48,-0.08015
1604.49,-0.08013
1604.5,-0.08048
1604.51,-0.07953
1604.52,-0.07964
1604.53,-0.07974
1604.54,-0.07937
1604.55,-0.07945
1604.56,-0.08
1604.57,-0.07892
1604.58,-0.07998
1604.59,-0.07931
1604.6,-0.0801
1604.61,-0.07946
1604.62,-0.08007
1604.63,-0.07864
1604.64,-0.07973
1604.65,-0.07866
1604.66,-0.0792
1604.67,-0.07958
1604.68,-0.07911
1604.69,-0.07962
1604.7,-0.07953
1604.71,-0.08001
1604.72,-0.07951
1604.73,-0.07983
1604.74,-0.07926
1604.75,-0.07903
1604.76,-0.07866
1604.77,-0.07941
1604.78,-0.0787
1604.79,-0.07956
1604.8,-0.07939
1604.81,-0.07904
1604.82,-0.07957
1604.83,-0.07952
1604.84,-0.07899
1604.85,-0.07961
1604.86,-0.07891
1604.87,-0.07933
1604.88,-0.07892
1604.89,-0.07925
1604.9,-0.07812
1604.91,-0.0791
1604.92,-0.07909
1604.93,-0.07931
1604.94,-0.07934
1604.95,-0.07908
1604.96,-0.07967
1604.97,-0.0782
1604.98,-0.07868
1604.99,-0.07879
1605,-0.07932
1605.01,-0.07858
1605.02,-0.07934
1605.03,-0.07865
1605.04,-0.07914
1605.05,-0.0793
1605.06,-0.07903
1605.07,-0.07952
1605.08,-0.0785
1605.09,-0.07911
1605.1,-0.07792
1605.11,-0.07911
1605.12,-0.0786
1605.13,-0.07871
1605.14,-0.07916
1605.15,-0.07907
1605.16,-0.07889
1605.17,-0.07907
1605.18,-0.07899
1605.19,-0.07878
1605.2,-0.0782
1605.21,-0.07829
1605.22,-0.07933
1605.23,-0.07852
1605.24,-0.07843
1605.25,-0.07885
1605.26,-0.07901
1605.27,-0.07903
1605.28,-0.07899
1605.29,-0.07871
1605.3,-0.07925
1605.31,-0.07827
1605.32,-0.07877
1605.33,-0.07861
1605.34,-0.07915
1605.35,-0.07792
1605.36,-0.07904
1605.37,-0.07868
1605.38,-0.07925
1605.39,-0.079
1605.4,-0.0786
1605.41,-0.07867
1605.42,-0.0789
1605.43,-0.0787
1605.44,-0.07833
1605.45,-0.07864
1605.46,-0.07845
1605.47,-0.07956
1605.48,-0.07859
1605.49,-0.07914
1605.5,-0.07943
1605.51,-0.07924
1605.52,-0.07961
1605.53,-0.07956
1605.54,-0.07903
1605.55,-0.07934
1605.56,-0.07939
1605.57,-0.07945
1605.58,-0.07925
1605.59,-0.07943
1605.6,-0.07994
1605.61,-0.08013
1605.62,-0.08051
1605.63,-0.0796
1605.64,-0.07993
1605.65,-0.07958
1605.66,-0.07981
1605.67,-0.07927
1605.68,-0.08012
1605.69,-0.08005
1605.7,-0.07975
1605.71,-0.0806
1605.72,-0.08015
1605.73,-0.08095
1605.74,-0.08086
1605.75,-0.08077
1605.76,-0.08022
1605.77,-0.07983
1605.78,-0.08027
1605.79,-0.08025
1605.8,-0.07994
1605.81,-0.08057
1605.82,-0.08075
1605.83,-0.08089
1605.84,-0.08057
1605.85,-0.08076
1605.86,-0.08085
1605.87,-0.08058
1605.88,-0.08049
1605.89,-0.08001
1605.9,-0.08046
1605.91,-0.0801
1605.92,-0.08072
1605.93,-0.08083
1605.94,-0.08084
1605.95,-0.08101
1605.96,-0.08112
1605.97,-0.07931
1605.98,-0.08093
1605.99,-0.08064
1606,-0.08062
1606.01,-0.08048
1606.02,-0.08056
1606.03,-0.08056
1606.04,-0.08085
1606.05,-0.08085
1606.06,-0.08058
1606.07,-0.08081
1606.08,-0.08038
1606.09,-0.08068
1606.1,-0.07985
1606.11,-0.07997
1606.12,-0.07965
1606.13,-0.08038
1606.14,-0.07987
1606.15,-0.08008
1606.16,-0.08025
1606.17,-0.08056
1606.18,-0.08022
1606.19,-0.08008
1606.2,-0.08013
1606.21,-0.07943
1606.22,-0.07934
1606.23,-0.07992
1606.24,-0.07973
1606.25,-0.07913
1606.26,-0.07986
1606.27,-0.07988
1606.28,-0.07984
1606.29,-0.08017
1606.3,-0.07946
1606.31,-0.07914
1606.32,-0.0798
1606.33,-0.07918
1606.34,-0.07923
1606.35,-0.07879
1606.36,-0.07927
1606.37,-0.079
1606.38,-0.07928
1606.39,-0.07975
1606.4,-0.07893
1606.41,-0.07923
1606.42,-0.0784
1606.43,-0.0788
1606.44,-0.07846
1606.45,-0.0787
1606.46,-0.07886
1606.47,-0.07836
1606.48,-0.07918
1606.49,-0.07918
1606.5,-0.07922
1606.51,-0.07916
1606.52,-0.07953
1606.53,-0.07886
1606.54,-0.07879
1606.55,-0.07895
1606.56,-0.07919
1606.57,-0.07943
1606.58,-0.07945
1606.59,-0.07938
1606.6,-0.07947
1606.61,-0.0796
1606.62,-0.07961
1606.63,-0.07958
1606.64,-0.07924
1606.65,-0.07926
1606.66,-0.07932
1606.67,-0.07933
1606.68,-0.07936
1606.69,-0.07943
1606.7,-0.08011
1606.71,-0.07987
1606.72,-0.07988
1606.73,-0.08028
1606.74,-0.08063
1606.75,-0.08039
1606.76,-0.0803
1606.77,-0.08038
1606.78,-0.07991
1606.79,-0.08025
1606.8,-0.08032
1606.81,-0.08089
1606.82,-0.081
1606.83,-0.08112
1606.84,-0.08095
1606.85,-0.08136
1606.86,-0.08098
1606.87,-0.0809
1606.88,-0.08104
1606.89,-0.08106
1606.9,-0.08138
1606.91,-0.08102
1606.92,-0.08178
1606.93,-0.08141
1606.94,-0.08234
1606.95,-0.08191
1606.96,-0.08234
1606.97,-0.08233
1606.98,-0.08171
1606.99,-0.08214
1607,-0.08165
1607.01,-0.08227
1607.02,-0.08223
1607.03,-0.08167
1607.04,-0.08215
1607.05,-0.08276
1607.06,-0.08236
1607.07,-0.08312
1607.08,-0.08229
1607.09,-0.08287
1607.1,-0.08213
1607.11,-0.08276
1607.12,-0.08238
1607.13,-0.08302
1607.14,-0.08259
1607.15,-0.08318
1607.16,-0.083
1607.17,-0.08319
1607.18,-0.08375
1607.19,-0.08267
1607.2,-0.08294
1607.21,-0.08284
1607.22,-0.0825
1607.23,-0.08233
1607.24,-0.08289
1607.25,-0.08242
1607.26,-0.08245
1607.27,-0.08247
1607.28,-0.08261
1607.29,-0.08279
1607.3,-0.0824
1607.31,-0.08259
1607.32,-0.08264
1607.33,-0.08172
1607.34,-0.08189
1607.35,-0.08206
1607.36,-0.08244
1607.37,-0.08215
1607.38,-0.08168
1607.39,-0.08219
1607.4,-0.08239
1607.41,-0.0815
1607.42,-0.0824
1607.43,-0.08133
1607.44,-0.08175
1607.45,-0.0812
1607.46,-0.08192
1607.47,-0.08106
1607.48,-0.08185
1607.49,-0.08113
1607.5,-0.08135
1607.51,-0.08183
1607.52,-0.08124
1607.53,-0.08141
1607.54,-0.0806
1607.55,-0.08135
1607.56,-0.08068
1607.57,-0.0805
1607.58,-0.08109
1607.59,-0.08059
1607.6,-0.08093
1607.61,-0.08099
1607.62,-0.081
1607.63,-0.08062
1607.64,-0.0812
1607.65,-0.07999
1607.66,-0.08044
1607.67,-0.08039
1607.68,-0.08008
1607.69,-0.08049
1607.7,-0.0802
1607.71,-0.08089
1607.72,-0.08054
1607.73,-0.08016
1607.74,-0.0807
1607.75,-0.08054
1607.76,-0.08051
1607.77,-0.08008
1607.78,-0.07979
1607.79,-0.08024
1607.8,-0.08
1607.81,-0.08035
1607.82,-0.08036
1607.83,-0.0809
1607.84,-0.08037
1607.85,-0.08023
1607.86,-0.08108
1607.87,-0.08023
1607.88,-0.08058
1607.89,-0.08035
1607.9,-0.08037
1607.91,-0.08021
1607.92,-0.08033
1607.93,-0.08014
1607.94,-0.08087
1607.95,-0.08055
1607.96,-0.08123
1607.97,-0.08094
1607.98,-0.08081
1607.99,-0.08059
1608,-0.08107
1608.01,-0.08072
1608.02,-0.08068
1608.03,-0.08161
1608.04,-0.08116
1608.05,-0.08139
1608.06,-0.08155
1608.07,-0.08144
1608.08,-0.08175
1608.09,-0.08144
1608.1,-0.0815
1608.11,-0.08124
1608.12,-0.08145
1608.13,-0.08127
1608.14,-0.08119
1608.15,-0.08134
1608.16,-0.08197
1608.17,-0.08241
1608.18,-0.08197
1608.19,-0.08243
1608.2,-0.08229
1608.21,-0.08203
1608.22,-0.08193
1608.23,-0.08215
1608.24,-0.0817
1608.25,-0.08238
1608.26,-0.08169
1608.27,-0.08266
1608.28,-0.08226
1608.29,-0.08284
1608.3,-0.08249
1608.31,-0.08301
1608.32,-0.08252
1608.33,-0.08279
1608.34,-0.08198
1608.35,-0.08332
1608.36,-0.08222
1608.37,-0.08234
1608.38,-0.08273
1608.39,-0.08229
1608.4,-0.08285
1608.41,-0.08261
1608.42,-0.08263
1608.43,-0.08231
1608.44,-0.08271
1608.45,-0.08256
1608.46,-0.08191
1608.47,-0.08249
1608.48,-0.08289
1608.49,-0.08226
1608.5,-0.08235
1608.51,-0.08279
1608.52,-0.08251
1608.53,-0.08274
1608.54,-0.08179
1608.55,-0.08226
1608.56,-0.08167
1608.57,-0.08211
1608.58,-0.0817
1608.59,-0.08241
1608.6,-0.08204
1608.61,-0.08228
1608.62,-0.08233
1608.63,-0.08185
1608.64,-0.08235
1608.65,-0.08193
1608.66,-0.08157
1608.67,-0.08129
1608.68,-0.08115
1608.69,-0.0815
1608.7,-0.08077
1608.71,-0.08157
1608.72,-0.08167
1608.73,-0.08069
1608.74,-0.08175
1608.75,-0.08109
1608.76,-0.08165
1608.77,-0.08065
1608.78,-0.08108
1608.79,-0.08108
1608.8,-0.08111
1608.81,-0.08057
1608.82,-0.08118
1608.83,-0.08086
1608.84,-0.08045
1608.85,-0.08119
1608.86,-0.08105
1608.87,-0.08102
1608.88,-0.08059
1608.89,-0.08123
1608.9,-0.08031
1608.91,-0.07998
1608.92,-0.08059
1608.93,-0.08037
1608.94,-0.0803
1608.95,-0.08069
1608.96,-0.08094
1608.97,-0.08093
1608.98,-0.08063
1608.99,-0.08085
1609,-0.08029
1609.01,-0.08008
1609.02,-0.08031
1609.03,-0.08031
1609.04,-0.08055
1609.05,-0.08027
1609.06,-0.08085
1609.07,-0.08035
1609.08,-0.0809
1609.09,-0.08066
1609.1,-0.08119
1609.11,-0.08048
1609.12,-0.08048
1609.13,-0.08058
1609.14,-0.08015
1609.15,-0.08054
1609.16,-0.08099
1609.17,-0.08097
1609.18,-0.08092
1609.19,-0.08077
1609.2,-0.08078
1609.21,-0.08107
1609.22,-0.08012
1609.23,-0.08118
1609.24,-0.08075
1609.25,-0.08107
1609.26,-0.08077
1609.27,-0.08097
1609.28,-0.08098
1609.29,-0.08069
1609.3,-0.0816
1609.31,-0.08118
1609.32,-0.08165
1609.33,-0.08163
1609.34,-0.08136
1609.35,-0.08077
1609.36,-0.08118
1609.37,-0.08084
1609.38,-0.08154
1609.39,-0.08105
1609.4,-0.0822
1609.41,-0.08207
1609.42,-0.08189
1609.43,-0.08181
1609.44,-0.08093
1609.45,-0.0817
1609.46,-0.08128
1609.47,-0.08187
1609.48,-0.0817
1609.49,-0.08149
1609.5,-0.08166
1609.51,-0.08177
1609.52,-0.08201
1609.53,-0.08204
1609.54,-0.08217
1609.55,-0.08177
1609.56,-0.08202
1609.57,-0.08152
1609.58,-0.08193
1609.59,-0.08201
1609.6,-0.0819
1609.61,-0.08174
1609.62,-0.08226
1609.63,-0.08219
1609.64,-0.08232
1609.65,-0.08206
1609.66,-0.08126
1609.67,-0.08132
1609.68,-0.08183
1609.69,-0.0813
1609.7,-0.08182
1609.71,-0.08209
1609.72,-0.08187
1609.73,-0.08205
1609.74,-0.0821
1609.75,-0.08249
1609.76,-0.08216
1609.77,-0.08241
1609.78,-0.08146
1609.79,-0.08204
1609.8,-0.08159
1609.81,-0.08221
1609.82,-0.08188
1609.83,-0.08228
1609.84,-0.08208
1609.85,-0.08221
1609.86,-0.08256
1609.87,-0.08195
1609.88,-0.08199
1609.89,-0.08207
1609.9,-0.08198
1609.91,-0.08174
1609.92,-0.08176
1609.93,-0.08181
1609.94,-0.08211
1609.95,-0.08208
1609.96,-0.08134
1609.97,-0.08342
1609.98,-0.08229
1609.99,-0.08181
1610,-0.08154
1610.01,-0.08204
1610.02,-0.0815
1610.03,-0.08163
1610.04,-0.08204
1610.05,-0.08178
1610.06,-0.08227
1610.07,-0.08199
1610.08,-0.08196
1610.09,-0.08225
1610.1,-0.08209
1610.11,-0.0818
1610.12,-0.08171
1610.13,-0.08191
1610.14,-0.08172
1610.15,-0.08125
1610.16,-0.08248
1610.17,-0.08186
1610.18,-0.08205
1610.19,-0.08251
1610.2,-0.08264
1610.21,-0.08227
1610.22,-0.08213
1610.23,-0.08184
1610.24,-0.0823
1610.25,-0.08159
1610.26,-0.08227
1610.27,-0.08169
1610.28,-0.08293
1610.29,-0.08173
1610.3,-0.08275
1610.31,-0.08269
1610.32,-0.08279
1610.33,-0.08222
1610.34,-0.08247
1610.35,-0.0822
1610.36,-0.08195
1610.37,-0.0825
1610.38,-0.08249
1610.39,-0.08216
1610.4,-0.08238
1610.41,-0.0828
1610.42,-0.08277
1610.43,-0.08277
1610.44,-0.08258
1610.45,-0.08238
1610.46,-0.08214
1610.47,-0.08229
1610.48,-0.08197
1610.49,-0.08273
1610.5,-0.08297
1610.51,-0.08301
1610.52,-0.08332
1610.53,-0.08285
1610.54,-0.08249
1610.55,-0.08252
1610.56,-0.08303
1610.57,-0.08245
1610.58,-0.08271
1610.59,-0.0824
1610.6,-0.08306
1610.61,-0.08225
1610.62,-0.08282
1610.63,-0.08302
1610.64,-0.08281
1610.65,-0.08343
1610.66,-0.0828
1610.67,-0.08249
1610.68,-0.08259
1610.69,-0.08223
1610.7,-0.08237
1610.71,-0.08244
1610.72,-0.08239
1610.73,-0.08253
1610.74,-0.08284
1610.75,-0.0823
1610.76,-0.08311
1610.77,-0.08277
1610.78,-0.0828
1610.79,-0.08195
1610.8,-0.08259
1610.81,-0.08221
1610.82,-0.08249
1610.83,-0.08262
1610.84,-0.0827
1610.85,-0.08255
1610.86,-0.08281
1610.87,-0.08296
1610.88,-0.08262
1610.89,-0.08289
1610.9,-0.08287
1610.91,-0.08264
1610.92,-0.08269
1610.93,-0.08223
1610.94,-0.08276
1610.95,-0.08256
1610.96,-0.08266
1610.97,-0.08202
1610.98,-0.08286
1610.99,-0.08319
1611,-0.08268
1611.01,-0.08279
1611.02,-0.08276
1611.03,-0.08228
1611.04,-0.08287
1611.05,-0.08329
1611.06,-0.08237
1611.07,-0.08362
1611.08,-0.08343
1611.09,-0.08373
1611.1,-0.08335
1611.11,-0.08337
1611.12,-0.08301
1611.13,-0.08328
1611.14,-0.08299
1611.15,-0.08299
1611.16,-0.08362
1611.17,-0.08388
1611.18,-0.08398
1611.19,-0.08373
1611.2,-0.08398
1611.21,-0.08455
1611.22,-0.08426
1611.23,-0.08384
1611.24,-0.08347
1611.25,-0.08398
1611.26,-0.08382
1611.27,-0.08433
1611.28,-0.08437
1611.29,-0.08392
1611.3,-0.08487
1611.31,-0.08476
1611.32,-0.08419
1611.33,-0.08503
1611.34,-0.08425
1611.35,-0.08399
1611.36,-0.08465
1611.37,-0.08455
1611.38,-0.08445
1611.39,-0.08462
1611.4,-0.08495
1611.41,-0.08502
1611.42,-0.08544
1611.43,-0.08509
1611.44,-0.08538
1611.45,-0.08491
1611.46,-0.08544
1611.47,-0.08499
1611.48,-0.0849
1611.49,-0.08529
1611.5,-0.08523
1611.51,-0.08506
1611.52,-0.08572
1611.53,-0.08534
1611.54,-0.08606
1611.55,-0.08591
1611.56,-0.08543
1611.57,-0.08558
1611.58,-0.08522
1611.59,-0.08529
1611.6,-0.0856
1611.61,-0.08577
1611.62,-0.08521
1611.63,-0.08561
1611.64,-0.08602
1611.65,-0.08559
1611.66,-0.08586
1611.67,-0.08523
1611.68,-0.08578
1611.69,-0.0852
1611.7,-0.08526
1611.71,-0.08534
1611.72,-0.08499
1611.73,-0.08512
1611.74,-0.08557
1611.75,-0.08526
1611.76,-0.08572
1611.77,-0.08569
1611.78,-0.0858
1611.79,-0.0849
1611.8,-0.08524
1611.81,-0.084
1611.82,-0.08482
1611.83,-0.08485
1611.84,-0.08492
1611.85,-0.08478
1611.86,-0.08504
1611.87,-0.08514
1611.88,-0.08468
1611.89,-0.08458
1611.9,-0.08432
1611.91,-0.08465
1611.92,-0.08432
1611.93,-0.08389
1611.94,-0.08428
1611.95,-0.08407
1611.96,-0.08462
1611.97,-0.08423
1611.98,-0.08457
1611.99,-0.08393
1612,-0.08456
1612.01,-0.08367
1612.02,-0.08373
1612.03,-0.08363
1612.04,-0.08349
1612.05,-0.08357
1612.06,-0.08325
1612.07,-0.08373
1612.08,-0.08339
1612.09,-0.08383
1612.1,-0.08408
1612.11,-0.08317
1612.12,-0.08295
1612.13,-0.08349
1612.14,-0.0829
1612.15,-0.08301
1612.16,-0.08277
1612.17,-0.08358
1612.18,-0.08253
1612.19,-0.08424
1612.2,-0.08302
1612.21,-0.08381
1612.22,-0.08401
1612.23,-0.08342
1612.24,-0.08303
1612.25,-0.08303
1612.26,-0.08346
1612.27,-0.08253
1612.28,-0.08303
1612.29,-0.08342
1612.3,-0.08352
1612.31,-0.08343
1612.32,-0.08367
1612.33,-0.08314
1612.34,-0.08336
1612.35,-0.08341
1612.36,-0.08311
1612.37,-0.08314
1612.38,-0.08336
1612.39,-0.08328
1612.4,-0.08356
1612.41,-0.08379
1612.42,-0.08392
1612.43,-0.08395
1612.44,-0.08435
1612.45,-0.08364
1612.46,-0.08326
1612.47,-0.08388
1612.48,-0.08356
1612.49,-0.08384
1612.5,-0.08393
1612.51,-0.08383
1612.52,-0.08467
1612.53,-0.08438
1612.54,-0.08436
1612.55,-0.08445
1612.56,-0.08453
1612.57,-0.08458
1612.58,-0.08414
1612.59,-0.08433
1612.6,-0.08438
1612.61,-0.08432
1612.62,-0.08448
1612.63,-0.08503
1612.64,-0.08505
1612.65,-0.08512
1612.66,-0.08549
1612.67,-0.08558
1612.68,-0.08544
1612.69,-0.08542
1612.7,-0.08502
1612.71,-0.08539
1612.72,-0.08564
1612.73,-0.08578
1612.74,-0.08575
1612.75,-0.08567
1612.76,-0.08626
1612.77,-0.08596
1612.78,-0.0861
1612.79,-0.08578
1612.8,-0.08605
1612.81,-0.08544
1612.82,-0.08559
1612.83,-0.08568
1612.84,-0.08584
1612.85,-0.08593
1612.86,-0.08645
1612.87,-0.08583
1612.88,-0.08625
1612.89,-0.08622
1612.9,-0.08589
1612.91,-0.08559
1612.92,-0.08606
1612.93,-0.0855
1612.94,-0.08576
1612.95,-0.08572
1612.96,-0.08596
1612.97,-0.08615
1612.98,-0.08615
1612.99,-0.08586
1613,-0.08604
1613.01,-0.08641
1613.02,-0.08599
1613.03,-0.08547
1613.04,-0.08572
1613.05,-0.0852
1613.06,-0.08572
1613.07,-0.08508
1613.08,-0.08528
1613.09,-0.08544
1613.1,-0.08542
1613.11,-0.08578
1613.12,-0.08504
1613.13,-0.08524
1613.14,-0.0849
1613.15,-0.0843
1613.16,-0.08493
1613.17,-0.08462
1613.18,-0.08471
1613.19,-0.08476
1613.2,-0.08496
1613.21,-0.08385
1613.22,-0.08659
1613.23,-0.08377
1613.24,-0.08439
1613.25,-0.08421
1613.26,-0.08364
1613.27,-0.0839
1613.28,-0.08389
1613.29,-0.08422
1613.3,-0.08378
1613.31,-0.08415
1613.32,-0.08406
1613.33,-0.08377
1613.34,-0.084
1613.35,-0.08401
1613.36,-0.08349
1613.37,-0.08338
1613.38,-0.08356
1613.39,-0.08351
1613.4,-0.08343
1613.41,-0.08338
1613.42,-0.08437
1613.43,-0.08409
1613.44,-0.08342
1613.45,-0.08454
1613.46,-0.08395
1613.47,-0.08314
1613.48,-0.08384
1613.49,-0.08314
1613.5,-0.08369
1613.51,-0.08319
1613.52,-0.0836
1613.53,-0.08355
1613.54,-0.08381
1613.55,-0.084
1613.56,-0.08349
1613.57,-0.0833
1613.58,-0.08347
1613.59,-0.08318
1613.6,-0.0838
1613.61,-0.08326
1613.62,-0.08341
1613.63,-0.08376
1613.64,-0.08381
1613.65,-0.08374
1613.66,-0.08342
1613.67,-0.08454
1613.68,-0.08401
1613.69,-0.08344
1613.7,-0.08412
1613.71,-0.0831
1613.72,-0.08389
1613.73,-0.08411
1613.74,-0.08368
1613.75,-0.08424
1613.76,-0.08433
1613.77,-0.08427
1613.78,-0.08506
1613.79,-0.08435
1613.8,-0.0846
1613.81,-0.08456
1613.82,-0.08415
1613.83,-0.08465
1613.84,-0.08488
1613.85,-0.08455
1613.86,-0.08495
1613.87,-0.08508
1613.88,-0.08524
1613.89,-0.0856
1613.9,-0.08546
1613.91,-0.0855
1613.92,-0.08477
1613.93,-0.08543
1613.94,-0.08483
1613.95,-0.0851
1613.96,-0.08539
1613.97,-0.08591
1613.98,-0.08551
1613.99,-0.08539
1614,-0.08625
1614.01,-0.08566
1614.02,-0.08541
1614.03,-0.08579
1614.04,-0.08522
1614.05,-0.08524
1614.06,-0.0861
1614.07,-0.08527
1614.08,-0.086
1614.09,-0.08588
1614.1,-0.0862
1614.11,-0.08597
1614.12,-0.08614
1614.13,-0.08617
1614.14,-0.08595
1614.15,-0.08611
1614.16,-0.08581
1614.17,-0.08535
1614.18,-0.08586
1614.19,-0.08604
1614.2,-0.08602
1614.21,-0.0866
1614.22,-0.08638
1614.23,-0.0864
1614.24,-0.0859
1614.25,-0.08586
1614.26,-0.08568
1614.27,-0.08599
1614.28,-0.08592
1614.29,-0.08574
1614.3,-0.08591
1614.31,-0.0865
1614.32,-0.08643
1614.33,-0.08605
1614.34,-0.08647
1614.35,-0.08657
1614.36,-0.0857
1614.37,-0.08575
1614.38,-0.08566
1614.39,-0.08578
1614.4,-0.086
1614.41,-0.08606
1614.42,-0.08615
1614.43,-0.08627
1614.44,-0.08639
1614.45,-0.08654
1614.46,-0.08613
1614.47,-0.08616
1614.48,-0.08595
1614.49,-0.0855
1614.5,-0.08519
1614.51,-0.08539
1614.52,-0.08582
1614.53,-0.08534
1614.54,-0.0858
1614.55,-0.08547
1614.56,-0.0859
1614.57,-0.0858
1614.58,-0.08574
1614.59,-0.08555
1614.6,-0.08521
1614.61,-0.08529
1614.62,-0.08482
1614.63,-0.08567
1614.64,-0.08497
1614.65,-0.08585
1614.66,-0.08526
1614.67,-0.08553
1614.68,-0.08516
1614.69,-0.08529
1614.7,-0.08528
1614.71,-0.08461
1614.72,-0.08511
1614.73,-0.08497
1614.74,-0.08524
1614.75,-0.08523
1614.76,-0.08501
1614.77,-0.08562
1614.78,-0.08558
1614.79,-0.08597
1614.8,-0.08559
1614.81,-0.08498
1614.82,-0.08539
1614.83,-0.08529
1614.84,-0.08543
1614.85,-0.08564
1614.86,-0.08508
1614.87,-0.08581
1614.88,-0.08585
1614.89,-0.0857
1614.9,-0.08616
1614.91,-0.08552
1614.92,-0.08563
1614.93,-0.08559
1614.94,-0.085
1614.95,-0.08512
1614.96,-0.08566
1614.97,-0.08629
1614.98,-0.08614
1614.99,-0.08546
1615,-0.08702
1615.01,-0.08631
1615.02,-0.08634
1615.03,-0.08634
1615.04,-0.08614
1615.05,-0.08602
1615.06,-0.08575
1615.07,-0.0864
1615.08,-0.08644
1615.09,-0.08661
1615.1,-0.08649
1615.11,-0.08658
1615.12,-0.08699
1615.13,-0.08693
1615.14,-0.08692
1615.15,-0.08652
1615.16,-0.08651
1615.17,-0.08641
1615.18,-0.0868
1615.19,-0.08667
1615.2,-0.0869
1615.21,-0.08695
1615.22,-0.08724
1615.23,-0.08741
1615.24,-0.087
1615.25,-0.08695
1615.26,-0.0867
1615.27,-0.08655
1615.28,-0.08655
1615.29,-0.08671
1615.3,-0.08673
1615.31,-0.08681
1615.32,-0.08701
1615.33,-0.08739
1615.34,-0.08717
1615.35,-0.08739
1615.36,-0.08656
1615.37,-0.08723
1615.38,-0.08629
1615.39,-0.08706
1615.4,-0.08665
1615.41,-0.08712
1615.42,-0.08658
1615.43,-0.08688
1615.44,-0.08744
1615.45,-0.0872
1615.46,-0.08725
1615.47,-0.08712
1615.48,-0.08724
1615.49,-0.08681
1615.5,-0.08636
1615.51,-0.08652
1615.52,-0.08673
1615.53,-0.08708
1615.54,-0.08729
1615.55,-0.08741
1615.56,-0.08711
1615.57,-0.08753
1615.58,-0.08722
1615.59,-0.08744
1615.6,-0.08728
1615.61,-0.08683
1615.62,-0.08663
1615.63,-0.08722
1615.64,-0.0868
1615.65,-0.08719
1615.66,-0.08697
1615.67,-0.08735
1615.68,-0.08717
1615.69,-0.08692
1615.7,-0.08736
1615.71,-0.08667
1615.72,-0.0877
1615.73,-0.0866
1615.74,-0.08781
1615.75,-0.08662
1615.76,-0.0877
1615.77,-0.08697
1615.78,-0.08745
1615.79,-0.08739
1615.8,-0.08726
1615.81,-0.08745
1615.82,-0.08716
1615.83,-0.0874
1615.84,-0.08738
1615.85,-0.08705
1615.86,-0.0875
1615.87,-0.08755
1615.88,-0.08776
1615.89,-0.08765
1615.9,-0.08777
1615.91,-0.08777
1615.92,-0.0875
1615.93,-0.08712
1615.94,-0.08769
1615.95,-0.08726
1615.96,-0.0881
1615.97,-0.08717
1615.98,-0.08792
1615.99,-0.08767
1616,-0.08784
1616.01,-0.0879
1616.02,-0.08879
1616.03,-0.08802
1616.04,-0.0877
1616.05,-0.08808
1616.06,-0.0874
1616.07,-0.08784
1616.08,-0.08789
1616.09,-0.08774
1616.1,-0.08875
1616.11,-0.08794
1616.12,-0.08832
1616.13,-0.08834
1616.14,-0.08787
1616.15,-0.08787
1616.16,-0.08776
1616.17,-0.08767
1616.18,-0.08737
1616.19,-0.08813
1616.2,-0.08812
1616.21,-0.08772
1616.22,-0.08867
1616.23,-0.08817
1616.24,-0.08847
1616.25,-0.08798
1616.26,-0.08769
1616.27,-0.08765
1616.28,-0.08796
1616.29,-0.08776
1616.3,-0.08766
1616.31,-0.08783
1616.32,-0.08816
1616.33,-0.08787
1616.34,-0.08794
1616.35,-0.08778
1616.36,-0.0878
1616.37,-0.08748
1616.38,-0.08783
1616.39,-0.08739
1616.4,-0.08757
1616.41,-0.08719
1616.42,-0.08769
1616.43,-0.08726
1616.44,-0.08772
1616.45,-0.08764
1616.46,-0.08772
1616.47,-0.08761
1616.48,-0.08728
1616.49,-0.08687
1616.5,-0.08709
1616.51,-0.08757
1616.52,-0.08687
1616.53,-0.08729
1616.54,-0.08702
1616.55,-0.08711
1616.56,-0.08718
1616.57,-0.08778
1616.58,-0.08738
1616.59,-0.08656
1616.6,-0.08698
1616.61,-0.08662
1616.62,-0.08714
1616.63,-0.08666
1616.64,-0.08703
1616.65,-0.08674
1616.66,-0.0871
1616.67,-0.08702
1616.68,-0.08753
1616.69,-0.08699
1616.7,-0.0871
1616.71,-0.08709
1616.72,-0.08628
1616.73,-0.08678
1616.74,-0.08668
1616.75,-0.08671
1616.76,-0.08745
1616.77,-0.08656
1616.78,-0.0875
1616.79,-0.0871
1616.8,-0.08816
1616.81,-0.08728
1616.82,-0.08737
1616.83,-0.08693
1616.84,-0.08676
1616.85,-0.087
1616.86,-0.0868
1616.87,-0.08706
1616.88,-0.08692
1616.89,-0.08717
1616.9,-0.08785
1616.91,-0.0874
1616.92,-0.0873
1616.93,-0.08721
1616.94,-0.08701
1616.95,-0.0873
1616.96,-0.08777
1616.97,-0.08669
1616.98,-0.08724
1616.99,-0.08835
1617,-0.08752
1617.01,-0.08817
1617.02,-0.08806
1617.03,-0.08823
1617.04,-0.08771
1617.05,-0.08762
1617.06,-0.08823
1617.07,-0.08755
1617.08,-0.08773
1617.09,-0.08808
1617.1,-0.0881
1617.11,-0.08844
1617.12,-0.0884
1617.13,-0.08861
1617.14,-0.08837
1617.15,-0.08832
1617.16,-0.08831
1617.17,-0.0884
1617.18,-0.08838
1617.19,-0.08839
1617.2,-0.08823
1617.21,-0.08851
1617.22,-0.08974
1617.23,-0.08855
1617.24,-0.09
1617.25,-0.08835
1617.26,-0.08927
1617.27,-0.08851
1617.28,-0.08869
1617.29,-0.08865
1617.3,-0.0885
1617.31,-0.08882
1617.32,-0.08904
1617.33,-0.089
1617.34,-0.08937
1617.35,-0.08912
1617.36,-0.08935
1617.37,-0.08905
1617.38,-0.08888
1617.39,-0.08886
1617.4,-0.08887
1617.41,-0.08911
1617.42,-0.08881
1617.43,-0.08927
1617.44,-0.08892
1617.45,-0.08916
1617.46,-0.08892
1617.47,-0.08975
1617.48,-0.08869
1617.49,-0.08887
1617.5,-0.08867
1617.51,-0.08838
1617.52,-0.08845
1617.53,-0.08895
1617.54,-0.08835
1617.55,-0.08909
1617.56,-0.08859
1617.57,-0.089
1617.58,-0.08891
1617.59,-0.0887
1617.6,-0.08868
1617.61,-0.08844
1617.62,-0.0881
1617.63,-0.08782
1617.64,-0.08773
1617.65,-0.0881
1617.66,-0.08772
1617.67,-0.08768
1617.68,-0.08825
1617.69,-0.08823
1617.7,-0.08812
1617.71,-0.08766
1617.72,-0.08778
1617.73,-0.08754
1617.74,-0.08712
1617.75,-0.08765
1617.76,-0.08717
1617.77,-0.08775
1617.78,-0.08765
1617.79,-0.0873
1617.8,-0.08738
1617.81,-0.08742
1617.82,-0.08705
1617.83,-0.08712
1617.84,-0.08642
1617.85,-0.08694
1617.86,-0.08702
1617.87,-0.08663
1617.88,-0.0869
1617.89,-0.08656
1617.9,-0.08709
1617.91,-0.08722
1617.92,-0.08731
1617.93,-0.08686
1617.94,-0.08634
1617.95,-0.08644
1617.96,-0.08661
1617.97,-0.08674
1617.98,-0.08645
1617.99,-0.0873
1618,-0.08701
1618.01,-0.08731
1618.02,-0.08707
1618.03,-0.08692
1618.04,-0.08703
1618.05,-0.08654
1618.06,-0.08721
1618.07,-0.08645
1618.08,-0.08677
1618.09,-0.08706
1618.1,-0.08673
1618.11,-0.08715
1618.12,-0.08753
1618.13,-0.08754
1618.14,-0.08772
1618.15,-0.08718
1618.16,-0.08763
1618.17,-0.0871
1618.18,-0.08744
1618.19,-0.08708
1618.2,-0.08733
1618.21,-0.08788
1618.22,-0.08746
1618.23,-0.08866
1618.24,-0.08785
1618.25,-0.08862
1618.26,-0.08812
1618.27,-0.08802
1618.28,-0.08806
1618.29,-0.08796
1618.3,-0.0879
1618.31,-0.08865
1618.32,-0.08854
1618.33,-0.08873
1618.34,-0.08864
1618.35,-0.08919
1618.36,-0.08902
1618.37,-0.08904
1618.38,-0.0888
1618.39,-0.08897
1618.4,-0.08881
1618.41,-0.08888
1618.42,-0.08863
1618.43,-0.08913
1618.44,-0.08918
1618.45,-0.08946
1618.46,-0.08892
1618.47,-0.08974
1618.48,-0.08953
1618.49,-0.08925
1618.5,-0.08939
1618.51,-0.08963
1618.52,-0.0892
1618.53,-0.08958
1618.54,-0.08936
1618.55,-0.08985
1618.56,-0.09014
1618.57,-0.09026
1618.58,-0.08998
1618.59,-0.09036
1618.6,-0.08965
1618.61,-0.08942
1618.62,-0.08966
1618.63,-0.08962
1618.64,-0.08961
1618.65,-0.08962
1618.66,-0.08964
1618.67,-0.08997
1618.68,-0.08995
1618.69,-0.09011
1618.7,-0.09034
1618.71,-0.08955
1618.72,-0.08965
1618.73,-0.08972
1618.74,-0.08918
1618.75,-0.08913
1618.76,-0.08943
1618.77,-0.08935
1618.78,-0.08986
1618.79,-0.08949
1618.8,-0.08964
1618.81,-0.08971
1618.82,-0.08904
1618.83,-0.08956
1618.84,-0.0887
1618.85,-0.08942
1618.86,-0.08823
1618.87,-0.08904
1618.88,-0.08877
1618.89,-0.08875
1618.9,-0.08873
1618.91,-0.08912
1618.92,-0.08831
1618.93,-0.08905
1618.94,-0.08854
1618.95,-0.08825
1618.96,-0.08795
1618.97,-0.08816
1618.98,-0.08807
1618.99,-0.08814
1619,-0.08854
1619.01,-0.08804
1619.02,-0.08862
1619.03,-0.08792
1619.04,-0.08831
1619.05,-0.0879
1619.06,-0.08721
1619.07,-0.08766
1619.08,-0.0875
1619.09,-0.08712
1619.1,-0.08766
1619.11,-0.08758
1619.12,-0.08773
1619.13,-0.08769
1619.14,-0.08795
1619.15,-0.08819
1619.16,-0.08708
1619.17,-0.0871
1619.18,-0.08696
1619.19,-0.08714
1619.2,-0.08728
1619.21,-0.08724
1619.22,-0.08741
1619.23,-0.08763
1619.24,-0.08765
1619.25,-0.08776
1619.26,-0.0875
1619.27,-0.08742
1619.28,-0.08737
1619.29,-0.08714
1619.3,-0.08684
1619.31,-0.08692
1619.32,-0.08742
1619.33,-0.08766
1619.34,-0.08745
1619.35,-0.0875
1619.36,-0.08735
1619.37,-0.08796
1619.38,-0.08742
1619.39,-0.08737
1619.4,-0.08705
1619.41,-0.08742
1619.42,-0.08789
1619.43,-0.08706
1619.44,-0.08796
1619.45,-0.08802
1619.46,-0.08853
1619.47,-0.08802
1619.48,-0.08872
1619.49,-0.08816
1619.5,-0.08834
1619.51,-0.08833
1619.52,-0.088
1619.53,-0.08824
1619.54,-0.08842
1619.55,-0.08861
1619.56,-0.08858
1619.57,-0.08922
1619.58,-0.08887
1619.59,-0.08947
1619.6,-0.08908
1619.61,-0.08918
1619.62,-0.08884
1619.63,-0.08881
1619.64,-0.08874
1619.65,-0.08901
1619.66,-0.08889
1619.67,-0.08948
1619.68,-0.08989
1619.69,-0.08932
1619.7,-0.0904
1619.71,-0.0899
1619.72,-0.08971
1619.73,-0.08986
1619.74,-0.08942
1619.75,-0.0896
1619.76,-0.08995
1619.77,-0.08968
1619.78,-0.08991
1619.79,-0.09034
1619.8,-0.09005
1619.81,-0.09062
1619.82,-0.09049
1619.83,-0.09033
1619.84,-0.08988
1619.85,-0.09013
1619.86,-0.08998
1619.87,-0.09033
1619.88,-0.09034
1619.89,-0.09004
1619.9,-0.09033
1619.91,-0.09053
1619.92,-0.09108
1619.93,-0.09039
1619.94,-0.09059
1619.95,-0.09073
1619.96,-0.09003
1619.97,-0.09034
1619.98,-0.09015
1619.99,-0.09053
1620,-0.09039
1620.01,-0.09063
1620.02,-0.09064
1620.03,-0.09077
1620.04,-0.09045
1620.05,-0.09095
1620.06,-0.09002
1620.07,-0.09003
1620.08,-0.08972
1620.09,-0.08903
1620.1,-0.09028
1620.11,-0.09009
1620.12,-0.09028
1620.13,-0.09
1620.14,-0.09013
1620.15,-0.08997
1620.16,-0.09038
1620.17,-0.09015
1620.18,-0.08943
1620.19,-0.08975
1620.2,-0.08922
1620.21,-0.08955
1620.22,-0.08943
1620.23,-0.08967
1620.24,-0.08974
1620.25,-0.09007
1620.26,-0.08859
1620.27,-0.09056
1620.28,-0.08936
1620.29,-0.08941
1620.3,-0.08946
1620.31,-0.08948
1620.32,-0.08973
1620.33,-0.08954
1620.34,-0.08934
1620.35,-0.08937
1620.36,-0.08927
1620.37,-0.08939
1620.38,-0.08943
1620.39,-0.08859
1620.4,-0.08878
1620.41,-0.08934
1620.42,-0.08866
1620.43,-0.08872
1620.44,-0.08905
1620.45,-0.08893
1620.46,-0.08938
1620.47,-0.08948
1620.48,-0.08942
1620.49,-0.09005
1620.5,-0.08951
1620.51,-0.08927
1620.52,-0.08946
1620.53,-0.08925
1620.54,-0.08888
1620.55,-0.08931
1620.56,-0.08936
1620.57,-0.08956
1620.58,-0.08951
1620.59,-0.08984
1620.6,-0.08978
1620.61,-0.09022
1620.62,-0.08971
1620.63,-0.08949
1620.64,-0.08945
1620.65,-0.08926
1620.66,-0.08944
1620.67,-0.08927
1620.68,-0.08986
1620.69,-0.08942
1620.7,-0.08975
1620.71,-0.08992
1620.72,-0.0896
1620.73,-0.08965
1620.74,-0.0898
1620.75,-0.08936
1620.76,-0.0893
1620.77,-0.08951
1620.78,-0.09
1620.79,-0.08979
1620.8,-0.08972
1620.81,-0.09025
1620.82,-0.08983
1620.83,-0.09
1620.84,-0.08962
1620.85,-0.09007
1620.86,-0.08911
1620.87,-0.08953
1620.88,-0.08949
1620.89,-0.08965
1620.9,-0.08993
1620.91,-0.08967
1620.92,-0.09039
1620.93,-0.0904
1620.94,-0.09034
1620.95,-0.08964
1620.96,-0.08957
1620.97,-0.0898
1620.98,-0.08953
1620.99,-0.08946
1621,-0.08977
1621.01,-0.09025
1621.02,-0.08978
1621.03,-0.0904
1621.04,-0.08988
1621.05,-0.09028
1621.06,-0.08982
1621.07,-0.09002
1621.08,-0.08971
1621.09,-0.0896
1621.1,-0.09008
1621.11,-0.08984
1621.12,-0.08977
1621.13,-0.08974
1621.14,-0.09066
1621.15,-0.09003
1621.16,-0.09027
1621.17,-0.09008
1621.18,-0.09001
1621.19,-0.0904
1621.2,-0.08944
1621.21,-0.08994
1621.22,-0.08929
1621.23,-0.09027
1621.24,-0.09014
1621.25,-0.08997
1621.26,-0.09025
1621.27,-0.0906
1621.28,-0.09034
1621.29,-0.08971
1621.3,-0.09007
1621.31,-0.08938
1621.32,-0.09009
1621.33,-0.09023
1621.34,-0.09016
1621.35,-0.09037
1621.36,-0.09059
1621.37,-0.09067
1621.38,-0.09062
1621.39,-0.09042
1621.4,-0.0902
1621.41,-0.09023
1621.42,-0.08979
1621.43,-0.09026
1621.44,-0.08973
1621.45,-0.09011
1621.46,-0.09051
1621.47,-0.09049
1621.48,-0.09117
1621.49,-0.09059
1621.5,-0.09061
1621.51,-0.09073
1621.52,-0.09027
1621.53,-0.08995
1621.54,-0.0903
1621.55,-0.09043
1621.56,-0.09104
1621.57,-0.09092
1621.58,-0.0907
1621.59,-0.09119
1621.6,-0.09114
1621.61,-0.09125
1621.62,-0.09135
1621.63,-0.09077
1621.64,-0.09073
1621.65,-0.09103
1621.66,-0.09065
1621.67,-0.09048
1621.68,-0.0911
1621.69,-0.09114
1621.7,-0.09155
1621.71,-0.09106
1621.72,-0.09128
1621.73,-0.09102
1621.74,-0.0908
1621.75,-0.09088
1621.76,-0.09115
1621.77,-0.09091
1621.78,-0.09053
1621.79,-0.0913
1621.8,-0.09072
1621.81,-0.09151
1621.82,-0.09106
1621.83,-0.0912
1621.84,-0.09069
1621.85,-0.09128
1621.86,-0.09086
1621.87,-0.09071
1621.88,-0.09031
1621.89,-0.09089
1621.9,-0.09064
1621.91,-0.09095
1621.92,-0.09154
1621.93,-0.09111
1621.94,-0.09079
1621.95,-0.09148
1621.96,-0.09034
1621.97,-0.0908
1621.98,-0.09039
1621.99,-0.09084
1622,-0.09042
1622.01,-0.09098
1622.02,-0.09053
1622.03,-0.09109
1622.04,-0.09077
1622.05,-0.09103
1622.06,-0.09066
1622.07,-0.09076
1622.08,-0.09086
1622.09,-0.09003
1622.1,-0.09055
1622.11,-0.09083
1622.12,-0.09038
1622.13,-0.09076
1622.14,-0.09096
1622.15,-0.09028
1622.16,-0.09092
1622.17,-0.0909
1622.18,-0.09022
1622.19,-0.09023
1622.2,-0.0903
1622.21,-0.09043
1622.22,-0.09007
1622.23,-0.08987
1622.24,-0.09053
1622.25,-0.09012
1622.26,-0.09052
1622.27,-0.09055
1622.28,-0.09045
1622.29,-0.09052
1622.3,-0.09016
1622.31,-0.0898
1622.32,-0.08983
1622.33,-0.09014
1622.34,-0.09016
1622.35,-0.09055
1622.36,-0.09043
1622.37,-0.09053
1622.38,-0.09054
1622.39,-0.09066
1622.4,-0.09063
1622.41,-0.09043
1622.42,-0.09023
1622.43,-0.08989
1622.44,-0.09041
1622.45,-0.09021
1622.46,-0.09028
1622.47,-0.0904
1622.48,-0.09047
1622.49,-0.09085
1622.5,-0.09095
1622.51,-0.09132
1622.52,-0.09048
1622.53,-0.09056
1622.54,-0.09011
1622.55,-0.09105
1622.56,-0.09101
1622.57,-0.09088
1622.58,-0.09132
1622.59,-0.09146
1622.6,-0.09158
1622.61,-0.09121
1622.62,-0.09172
1622.63,-0.0915
1622.64,-0.09114
1622.65,-0.09169
1622.66,-0.09149
1622.67,-0.09059
1622.68,-0.09092
1622.69,-0.09176
1622.7,-0.09135
1622.71,-0.09238
1622.72,-0.09207
1622.73,-0.09179
1622.74,-0.09146
1622.75,-0.09128
1622.76,-0.09167
1622.77,-0.09169
1622.78,-0.09126
1622.79,-0.09196
1622.8,-0.09267
1622.81,-0.09261
1622.82,-0.09222
1622.83,-0.09258
1622.84,-0.09279
1622.85,-0.09233
1622.86,-0.09203
1622.87,-0.09206
1622.88,-0.09243
1622.89,-0.092
1622.9,-0.09228
1622.91,-0.09251
1622.92,-0.09266
1622.93,-0.09213
1622.94,-0.09323
1622.95,-0.09242
1622.96,-0.0926
1622.97,-0.09198
1622.98,-0.09239
1622.99,-0.09222
1623,-0.09195
1623.01,-0.0921
1623.02,-0.09241
1623.03,-0.09175
1623.04,-0.09277
1623.05,-0.09245
1623.06,-0.09267
1623.07,-0.09213
1623.08,-0.09241
1623.09,-0.09197
1623.1,-0.09197
1623.11,-0.09204
1623.12,-0.09218
1623.13,-0.09197
1623.14,-0.09209
1623.15,-0.09217
1623.16,-0.09258
1623.17,-0.09227
1623.18,-0.09205
1623.19,-0.09218
1623.2,-0.09135
1623.21,-0.09142
1623.22,-0.09129
1623.23,-0.09144
1623.24,-0.09131
1623.25,-0.09231
1623.26,-0.09177
1623.27,-0.09176
1623.28,-0.09206
1623.29,-0.09212
1623.3,-0.09154
1623.31,-0.0916
1623.32,-0.09115
1623.33,-0.0913
1623.34,-0.09131
1623.35,-0.09082
1623.36,-0.09166
1623.37,-0.0917
1623.38,-0.09152
1623.39,-0.09117
1623.4,-0.09123
1623.41,-0.09108
1623.42,-0.09051
1623.43,-0.09115
1623.44,-0.09019
1623.45,-0.09013
1623.46,-0.09033
1623.47,-0.09086
1623.48,-0.09053
1623.49,-0.09105
1623.5,-0.09103
1623.51,-0.09061
1623.52,-0.09089
1623.53,-0.0904
1623.54,-0.09046
1623.55,-0.09058
1623.56,-0.09006
1623.57,-0.09061
1623.58,-0.09058
1623.59,-0.09076
1623.6,-0.09101
1623.61,-0.09127
1623.62,-0.0908
1623.63,-0.09106
1623.64,-0.09109
1623.65,-0.09118
1623.66,-0.09048
1623.67,-0.09033
1623.68,-0.09121
1623.69,-0.09052
1623.7,-0.09106
1623.71,-0.09102
1623.72,-0.09154
1623.73,-0.09153
1623.74,-0.09187
1623.75,-0.09138
1623.76,-0.09128
1623.77,-0.09159
1623.78,-0.09116
1623.79,-0.09149
1623.8,-0.09176
1623.81,-0.09195
1623.82,-0.09214
1623.83,-0.09154
1623.84,-0.0921
1623.85,-0.0918
1623.86,-0.09231
1623.87,-0.09201
1623.88,-0.0918
1623.89,-0.09146
1623.9,-0.09188
1623.91,-0.09218
1623.92,-0.09213
1623.93,-0.09319
1623.94,-0.09247
1623.95,-0.09289
1623.96,-0.09314
1623.97,-0.09294
1623.98,-0.09301
1623.99,-0.09242
1624,-0.09355
1624.01,-0.09225
1624.02,-0.0931
1624.03,-0.0932
1624.04,-0.09333
1624.05,-0.09349
1624.06,-0.09348
1624.07,-0.09367
1624.08,-0.09308
1624.09,-0.09347
1624.1,-0.09294
1624.11,-0.09378
1624.12,-0.093
1624.13,-0.09318
1624.14,-0.09362
1624.15,-0.09363
1624.16,-0.094
1624.17,-0.09379
1624.18,-0.0938
1624.19,-0.09363
1624.2,-0.09314
1624.21,-0.09325
1624.22,-0.09343
1624.23,-0.09313
1624.24,-0.0933
1624.25,-0.09488
1624.26,-0.09297
1624.27,-0.09439
1624.28,-0.0949
1624.29,-0.09418
1624.3,-0.09454
1624.31,-0.09377
1624.32,-0.09418
1624.33,-0.0941
1624.34,-0.09407
1624.35,-0.09404
1624.36,-0.09387
1624.37,-0.09401
1624.38,-0.09416
1624.39,-0.09451
1624.4,-0.09384
1624.41,-0.09405
1624.42,-0.09341
1624.43,-0.09366
1624.44,-0.09307
1624.45,-0.09344
1624.46,-0.09308
1624.47,-0.09311
1624.48,-0.0938
1624.49,-0.09319
1624.5,-0.09378
1624.51,-0.09349
1624.52,-0.0933
1624.53,-0.09356
1624.54,-0.09292
1624.55,-0.09283
1624.56,-0.09269
1624.57,-0.09307
1624.58,-0.09245
1624.59,-0.09233
1624.6,-0.09301
1624.61,-0.09225
1624.62,-0.09307
1624.63,-0.09232
1624.64,-0.09212
1624.65,-0.09158
1624.66,-0.09188
1624.67,-0.09141
1624.68,-0.09194
1624.69,-0.09207
1624.7,-0.09152
1624.71,-0.09231
1624.72,-0.0918
1624.73,-0.09229
1624.74,-0.09222
1624.75,-0.09222
1624.76,-0.09159
1624.77,-0.09156
1624.78,-0.0917
1624.79,-0.09147
1624.8,-0.09187
1624.81,-0.09132
1624.82,-0.0923
1624.83,-0.09147
1624.84,-0.09219
1624.85,-0.09209
1624.86,-0.09187
1624.87,-0.09105
1624.88,-0.09152
1624.89,-0.09159
1624.9,-0.09144
1624.91,-0.09135
1624.92,-0.0917
1624.93,-0.09157
1624.94,-0.0922
1624.95,-0.09218
1624.96,-0.0924
1624.97,-0.09192
1624.98,-0.09267
1624.99,-0.09225
1625,-0.09201
1625.01,-0.09187
1625.02,-0.09254
1625.03,-0.09252
1625.04,-0.09283
1625.05,-0.09274
1625.06,-0.09226
1625.07,-0.0934
1625.08,-0.09276
1625.09,-0.09276
1625.1,-0.09258
1625.11,-0.09287
1625.12,-0.09277
1625.13,-0.09257
1625.14,-0.09346
1625.15,-0.09307
1625.16,-0.09302
1625.17,-0.09323
1625.18,-0.09341
1625.19,-0.09348
1625.2,-0.09394
1625.21,-0.09377
1625.22,-0.09316
1625.23,-0.09363
1625.24,-0.0933
1625.25,-0.09379
1625.26,-0.09366
1625.27,-0.09402
1625.28,-0.09472
1625.29,-0.09441
1625.3,-0.09445
1625.31,-0.09419
1625.32,-0.09435
1625.33,-0.09441
1625.34,-0.09416
1625.35,-0.094
1625.36,-0.09378
1625.37,-0.09461
1625.38,-0.09446
1625.39,-0.09521
1625.4,-0.09461
1625.41,-0.09505
1625.42,-0.09536
1625.43,-0.09491
1625.44,-0.09445
1625.45,-0.09502
1625.46,-0.09472
1625.47,-0.09544
1625.48,-0.09551
1625.49,-0.09554
1625.5,-0.09572
1625.51,-0.0957
1625.52,-0.09573
1625.53,-0.09559
1625.54,-0.09567
1625.55,-0.09508
1625.56,-0.09536
1625.57,-0.0955
1625.58,-0.09499
1625.59,-0.09539
1625.6,-0.09539
1625.61,-0.09572
1625.62,-0.09561
1625.63,-0.09568
1625.64,-0.09601
1625.65,-0.09536
1625.66,-0.09506
1625.67,-0.09521
1625.68,-0.09508
1625.69,-0.09548
1625.7,-0.09535
1625.71,-0.09539
1625.72,-0.09608
1625.73,-0.09611
1625.74,-0.09573
1625.75,-0.09618
1625.76,-0.09589
1625.77,-0.09618
1625.78,-0.09522
1625.79,-0.09567
1625.8,-0.09532
1625.81,-0.09524
1625.82,-0.09527
1625.83,-0.09548
1625.84,-0.09596
1625.85,-0.09577
1625.86,-0.0958
1625.87,-0.09481
1625.88,-0.09524
1625.89,-0.09503
1625.9,-0.09484
1625.91,-0.09546
1625.92,-0.09451
1625.93,-0.09522
1625.94,-0.09537
1625.95,-0.09523
1625.96,-0.09561
1625.97,-0.09551
1625.98,-0.09554
1625.99,-0.09511
1626,-0.09545
1626.01,-0.09495
1626.02,-0.09504
1626.03,-0.09515
1626.04,-0.09504
1626.05,-0.09482
1626.06,-0.09547
1626.07,-0.09516
1626.08,-0.09483
1626.09,-0.09512
1626.1,-0.09493
1626.11,-0.09536
1626.12,-0.09454
1626.13,-0.09459
1626.14,-0.09556
1626.15,-0.09532
1626.16,-0.09499
1626.17,-0.09491
1626.18,-0.09498
1626.19,-0.09516
1626.2,-0.09501
1626.21,-0.09496
1626.22,-0.09434
1626.23,-0.09476
1626.24,-0.09444
1626.25,-0.09407
1626.26,-0.09491
1626.27,-0.09491
1626.28,-0.09513
1626.29,-0.09534
1626.3,-0.09508
1626.31,-0.09537
1626.32,-0.09479
1626.33,-0.09485
1626.34,-0.09481
1626.35,-0.09464
1626.36,-0.09539
1626.37,-0.09526
1626.38,-0.09522
1626.39,-0.09575
1626.4,-0.09568
1626.41,-0.09595
1626.42,-0.09611
1626.43,-0.0959
1626.44,-0.09597
1626.45,-0.09508
1626.46,-0.09524
1626.47,-0.09529
1626.48,-0.09528
1626.49,-0.09489
1626.5,-0.09633
1626.51,-0.0959
1626.52,-0.09572
1626.53,-0.09533
1626.54,-0.09581
1626.55,-0.09522
1626.56,-0.0951
1626.57,-0.09514
1626.58,-0.0952
1626.59,-0.09499
1626.6,-0.09542
1626.61,-0.09584
1626.62,-0.09507
1626.63,-0.09562
1626.64,-0.09606
1626.65,-0.0956
1626.66,-0.09574
1626.67,-0.09561
1626.68,-0.09568
1626.69,-0.0959
1626.7,-0.09627
1626.71,-0.09609
1626.72,-0.0968
1626.73,-0.09689
1626.74,-0.09671
1626.75,-0.09651
1626.76,-0.0966
1626.77,-0.09685
1626.78,-0.0956
1626.79,-0.0957
1626.8,-0.09579
1626.81,-0.09603
1626.82,-0.09618
1626.83,-0.09615
1626.84,-0.09638
1626.85,-0.09664
1626.86,-0.09659
1626.87,-0.09597
1626.88,-0.09601
1626.89,-0.09667
1626.9,-0.0964
1626.91,-0.09592
1626.92,-0.09614
1626.93,-0.09667
1626.94,-0.09704
1626.95,-0.09734
1626.96,-0.09714
1626.97,-0.09756
1626.98,-0.09671
1626.99,-0.09731
1627,-0.09635
1627.01,-0.09669
1627.02,-0.09641
1627.03,-0.09628
1627.04,-0.09621
1627.05,-0.09665
1627.06,-0.0963
1627.07,-0.09684
1627.08,-0.09659
1627.09,-0.09666
1627.1,-0.09702
1627.11,-0.09617
1627.12,-0.0967
1627.13,-0.09641
1627.14,-0.09645
1627.15,-0.09678
1627.16,-0.09657
1627.17,-0.09724
1627.18,-0.09658
1627.19,-0.09696
1627.2,-0.09697
1627.21,-0.09678
1627.22,-0.09685
1627.23,-0.09629
1627.24,-0.09643
1627.25,-0.0966
1627.26,-0.09705
1627.27,-0.09679
1627.28,-0.09653
1627.29,-0.09746
1627.3,-0.09692
1627.31,-0.09714
1627.32,-0.09681
1627.33,-0.09701
1627.34,-0.09598
1627.35,-0.09646
1627.36,-0.09638
1627.37,-0.0965
1627.38,-0.09665
1627.39,-0.09703
1627.4,-0.09667
1627.41,-0.09688
1627.42,-0.09658
1627.43,-0.09668
1627.44,-0.09648
1627.45,-0.09627
1627.46,-0.09619
1627.47,-0.09596
1627.48,-0.0968
1627.49,-0.09621
1627.5,-0.0967
1627.51,-0.09671
1627.52,-0.09644
1627.53,-0.09686
1627.54,-0.09643
1627.55,-0.09629
1627.56,-0.09603
1627.57,-0.09606
1627.58,-0.09578
1627.59,-0.09613
1627.6,-0.09605
1627.61,-0.09626
1627.62,-0.09612
1627.63,-0.09642
1627.64,-0.09691
1627.65,-0.09639
1627.66,-0.09619
1627.67,-0.0957
1627.68,-0.09607
1627.69,-0.09563
1627.7,-0.09552
1627.71,-0.09532
1627.72,-0.09564
1627.73,-0.09555
1627.74,-0.09619
1627.75,-0.09612
1627.76,-0.09562
1627.77,-0.096
1627.78,-0.09481
1627.79,-0.09519
1627.8,-0.09471
1627.81,-0.09506
1627.82,-0.0955
1627.83,-0.09556
1627.84,-0.09542
1627.85,-0.09558
1627.86,-0.09562
1627.87,-0.096
1627.88,-0.09568
1627.89,-0.09537
1627.9,-0.09501
1627.91,-0.09546
1627.92,-0.09532
1627.93,-0.09584
1627.94,-0.0957
1627.95,-0.09646
1627.96,-0.09585
1627.97,-0.09605
1627.98,-0.09761
1627.99,-0.10554
1628,-0.12235
1628.01,-0.15275
1628.02,-0.2
1628.03,-0.26809
1628.04,-0.34529
1628.05,-0.41985
1628.06,-0.47413
1628.07,-0.50011
1628.08,-0.49191
1628.09,-0.45294
1628.1,-0.39381
1628.11,-0.3253
1628.12,-0.25743
1628.13,-0.19744
1628.14,-0.15134
1628.15,-0.12292
1628.16,-0.10647
1628.17,-0.09984
1628.18,-0.09759
1628.19,-0.09647
1628.2,-0.09645
1628.21,-0.09603
1628.22,-0.09637
1628.23,-0.09569
1628.24,-0.09642
1628.25,-0.09578
1628.26,-0.0962
1628.27,-0.09641
1628.28,-0.09629
1628.29,-0.09666
1628.3,-0.09681
1628.31,-0.09741
1628.32,-0.09719
1628.33,-0.09746
1628.34,-0.09711
1628.35,-0.09744
1628.36,-0.09721
1628.37,-0.09737
1628.38,-0.09756
1628.39,-0.09728
1628.4,-0.09824
1628.41,-0.09778
1628.42,-0.09836
1628.43,-0.09764
1628.44,-0.09777
1628.45,-0.09785
1628.46,-0.09784
1628.47,-0.09768
1628.48,-0.09765
1628.49,-0.09775
1628.5,-0.09842
1628.51,-0.09812
1628.52,-0.09808
1628.53,-0.09801
1628.54,-0.0977
1628.55,-0.09788
1628.56,-0.09767
1628.57,-0.09723
1628.58,-0.09768
1628.59,-0.09738
1628.6,-0.0974
1628.61,-0.09753
1628.62,-0.09791
1628.63,-0.09806
1628.64,-0.09756
1628.65,-0.09822
1628.66,-0.09762
1628.67,-0.09802
1628.68,-0.09746
1628.69,-0.09746
1628.7,-0.09725
1628.71,-0.09747
1628.72,-0.0976
1628.73,-0.09807
1628.74,-0.09731
1628.75,-0.09922
1628.76,-0.09765
1628.77,-0.09757
1628.78,-0.09794
1628.79,-0.09762
1628.8,-0.09754
1628.81,-0.09723
1628.82,-0.09728
1628.83,-0.09744
1628.84,-0.09751
1628.85,-0.09791
1628.86,-0.09725
1628.87,-0.0975
1628.88,-0.09706
1628.89,-0.09712
1628.9,-0.09694
1628.91,-0.09645
1628.92,-0.09657
1628.93,-0.09674
1628.94,-0.09713
1628.95,-0.09639
1628.96,-0.09686
1628.97,-0.09735
1628.98,-0.09705
1628.99,-0.09712
1629,-0.09653
1629.01,-0.09691
1629.02,-0.09667
1629.03,-0.09677
1629.04,-0.09673
1629.05,-0.09682
1629.06,-0.09676
1629.07,-0.09734
1629.08,-0.09726
1629.09,-0.09661
1629.1,-0.09783
1629.11,-0.09669
1629.12,-0.09723
1629.13,-0.09639
1629.14,-0.09625
1629.15,-0.0958
1629.16,-0.09562
1629.17,-0.09596
1629.18,-0.0955
1629.19,-0.09635
1629.2,-0.09581
1629.21,-0.09637
1629.22,-0.09578
1629.23,-0.09606
1629.24,-0.09561
1629.25,-0.09589
1629.26,-0.09533
1629.27,-0.09572
1629.28,-0.09615
1629.29,-0.09625
1629.3,-0.09655
1629.31,-0.09683
1629.32,-0.09651
1629.33,-0.09659
1629.34,-0.09597
1629.35,-0.09613
1629.36,-0.09538
1629.37,-0.09642
1629.38,-0.09554
1629.39,-0.09568
1629.4,-0.09558
1629.41,-0.0959
1629.42,-0.09609
1629.43,-0.09611
1629.44,-0.09624
1629.45,-0.09577
1629.46,-0.09627
1629.47,-0.0957
1629.48,-0.09647
1629.49,-0.09614
1629.5,-0.09665
1629.51,-0.09662
1629.52,-0.09756
1629.53,-0.0975
1629.54,-0.09702
1629.55,-0.09751
1629.56,-0.09735
1629.57,-0.09799
1629.58,-0.09751
1629.59,-0.09743
1629.6,-0.09765
1629.61,-0.09803
1629.62,-0.09807
1629.63,-0.09802
1629.64,-0.09897
1629.65,-0.09833
1629.66,-0.09867
1629.67,-0.09817
1629.68,-0.09869
1629.69,-0.09785
1629.7,-0.09751
1629.71,-0.0978
1629.72,-0.09786
1629.73,-0.09836
1629.74,-0.09749
1629.75,-0.09915
1629.76,-0.09877
1629.77,-0.09852
1629.78,-0.09872
1629.79,-0.09778
1629.8,-0.09873
1629.81,-0.09794
1629.82,-0.09858
1629.83,-0.09855
1629.84,-0.09824
1629.85,-0.09931
1629.86,-0.09908
1629.87,-0.09975
1629.88,-0.09906
1629.89,-0.0999
1629.9,-0.09931
1629.91,-0.09917
1629.92,-0.09918
1629.93,-0.09907
1629.94,-0.09921
1629.95,-0.09918
1629.96,-0.09918
1629.97,-0.09922
1629.98,-0.09862
1629.99,-0.09976
1630,-0.09934
1630.01,-0.09904
1630.02,-0.0986
1630.03,-0.09881
1630.04,-0.09853
1630.05,-0.09866
1630.06,-0.09861
1630.07,-0.09929
1630.08,-0.09941
1630.09,-0.0991
1630.1,-0.09954
1630.11,-0.09936
1630.12,-0.09944
1630.13,-0.0994
1630.14,-0.09965
1630.15,-0.0995
1630.16,-0.09952
1630.17,-0.09907
1630.18,-0.09972
1630.19,-0.10009
1630.2,-0.09913
1630.21,-0.0997
1630.22,-0.09993
1630.23,-0.09946
1630.24,-0.0987
1630.25,-0.0994
1630.26,-0.09858
1630.27,-0.09845
1630.28,-0.099
1630.29,-0.09825
1630.3,-0.09847
1630.31,-0.09906
1630.32,-0.09866
1630.33,-0.09896
1630.34,-0.09875
1630.35,-0.0997
1630.36,-0.09958
1630.37,-0.09948
1630.38,-0.09939
1630.39,-0.10091
1630.4,-0.10843
1630.41,-0.13098
1630.42,-0.18329
1630.43,-0.2642
1630.44,-0.38748
1630.45,-0.53719
1630.46,-0.68031
1630.47,-0.79883
1630.48,-0.87594
1630.49,-0.89913
1630.5,-0.85225
1630.51,-0.75807
1630.52,-0.63189
1630.53,-0.49086
1630.54,-0.36083
1630.55,-0.25561
1630.56,-0.18264
1630.57,-0.13777
1630.58,-0.11492
1630.59,-0.10403
1630.6,-0.1006
1630.61,-0.0995
1630.62,-0.09966
1630.63,-0.09969
1630.64,-0.09981
1630.65,-0.10017
1630.66,-0.1002
1630.67,-0.09971
1630.68,-0.09961
1630.69,-0.09941
1630.7,-0.09895
1630.71,-0.09888
1630.72,-0.09845
1630.73,-0.09849
1630.74,-0.09876
1630.75,-0.09846
1630.76,-0.09939
1630.77,-0.09868
1630.78,-0.09871
1630.79,-0.09883
1630.8,-0.09932
1630.81,-0.09871
1630.82,-0.09898
1630.83,-0.09872
1630.84,-0.09906
1630.85,-0.10002
1630.86,-0.10043
1630.87,-0.10049
1630.88,-0.10113
1630.89,-0.10093
1630.9,-0.10117
1630.91,-0.10055
1630.92,-0.10062
1630.93,-0.10054
1630.94,-0.10054
1630.95,-0.10049
1630.96,-0.10047
1630.97,-0.10072
1630.98,-0.1006
1630.99,-0.10084
1631,-0.10122
1631.01,-0.10131
1631.02,-0.1015
1631.03,-0.10129
1631.04,-0.10095
1631.05,-0.10075
1631.06,-0.10113
1631.07,-0.10115
1631.08,-0.10054
1631.09,-0.10042
1631.1,-0.10056
1631.11,-0.10028
1631.12,-0.09964
1631.13,-0.09967
1631.14,-0.09933
1631.15,-0.09941
1631.16,-0.09924
1631.17,-0.09925
1631.18,-0.09882
1631.19,-0.09972
1631.2,-0.09985
1631.21,-0.09972
1631.22,-0.09962
1631.23,-0.0999
1631.24,-0.10062
1631.25,-0.10042
1631.26,-0.10095
1631.27,-0.10082
1631.28,-0.10137
1631.29,-0.10119
1631.3,-0.10258
1631.31,-0.10177
1631.32,-0.10241
1631.33,-0.1022
1631.34,-0.10134
1631.35,-0.10209
1631.36,-0.10117
1631.37,-0.10134
1631.38,-0.10058
1631.39,-0.10067
1631.4,-0.1001
1631.41,-0.09973
1631.42,-0.10007
1631.43,-0.0994
1631.44,-0.09957
1631.45,-0.09891
1631.46,-0.09963
1631.47,-0.09913
1631.48,-0.09858
1631.49,-0.09924
1631.5,-0.0979
1631.51,-0.09924
1631.52,-0.09936
1631.53,-0.09897
1631.54,-0.09937
1631.55,-0.10007
1631.56,-0.09897
1631.57,-0.1002
1631.58,-0.09993
1631.59,-0.09995
1631.6,-0.10113
1631.61,-0.10043
1631.62,-0.10137
1631.63,-0.10172
1631.64,-0.10166
1631.65,-0.10214
1631.66,-0.10132
1631.67,-0.10168
1631.68,-0.10065
1631.69,-0.10026
1631.7,-0.09931
1631.71,-0.09881
1631.72,-0.09876
1631.73,-0.09839
1631.74,-0.09956
1631.75,-0.09891
1631.76,-0.09801
1631.77,-0.0991
1631.78,-0.09928
1631.79,-0.09855
1631.8,-0.09878
1631.81,-0.09878
1631.82,-0.09907
1631.83,-0.0995
1631.84,-0.09969
1631.85,-0.10045
1631.86,-0.10063
1631.87,-0.10169
1631.88,-0.10179
1631.89,-0.10114
1631.9,-0.1005
1631.91,-0.10097
1631.92,-0.10018
1631.93,-0.09933
1631.94,-0.09922
1631.95,-0.09912
1631.96,-0.09916
1631.97,-0.09888
1631.98,-0.09957
1631.99,-0.09931
1632,-0.09928
1632.01,-0.09967
1632.02,-0.09932
1632.03,-0.09959
1632.04,-0.09949
1632.05,-0.10032
1632.06,-0.10043
1632.07,-0.10044
1632.08,-0.10123
1632.09,-0.10078
1632.1,-0.10119
1632.11,-0.10101
1632.12,-0.10132
1632.13,-0.1006
1632.14,-0.10076
1632.15,-0.10127
1632.16,-0.10115
1632.17,-0.10141
1632.18,-0.10077
1632.19,-0.10104
1632.2,-0.10111
1632.21,-0.10091
1632.22,-0.10025
1632.23,-0.10054
1632.24,-0.09983
1632.25,-0.09893
1632.26,-0.0989
1632.27,-0.09938
1632.28,-0.09904
1632.29,-0.09884
1632.3,-0.0994
1632.31,-0.09923
1632.32,-0.09901
1632.33,-0.09946
1632.34,-0.09938
1632.35,-0.09925
1632.36,-0.09887
1632.37,-0.0991
1632.38,-0.09847
1632.39,-0.09921
1632.4,-0.09946
1632.41,-0.0992
1632.42,-0.09999
1632.43,-0.09972
1632.44,-0.09986
1632.45,-0.09999
1632.46,-0.09952
1632.47,-0.0993
1632.48,-0.09959
1632.49,-0.09893
1632.5,-0.09872
1632.51,-0.0991
1632.52,-0.09864
1632.53,-0.09918
1632.54,-0.09899
1632.55,-0.09918
1632.56,-0.0989
1632.57,-0.09882
1632.58,-0.09859
1632.59,-0.09846
1632.6,-0.09836
1632.61,-0.09809
1632.62,-0.0985
1632.63,-0.09893
1632.64,-0.09946
1632.65,-0.09919
1632.66,-0.09941
1632.67,-0.09973
1632.68,-0.09979
1632.69,-0.09949
1632.7,-0.09928
1632.71,-0.0997
1632.72,-0.09942
1632.73,-0.09981
1632.74,-0.09932
1632.75,-0.09966
1632.76,-0.10253
1632.77,-0.11413
1632.78,-0.14184
1632.79,-0.19389
1632.8,-0.27425
1632.81,-0.3908
1632.82,-0.51599
1632.83,-0.63128
1632.84,-0.70693
1632.85,-0.75364
1632.86,-0.75398
1632.87,-0.69869
1632.88,-0.6059
1632.89,-0.49792
1632.9,-0.38891
1632.91,-0.28491
1632.92,-0.20124
1632.93,-0.14989
1632.94,-0.12152
1632.95,-0.10694
1632.96,-0.10202
1632.97,-0.10025
1632.98,-0.0998
1632.99,-0.0999
1633,-0.09916
1633.01,-0.09971
1633.02,-0.09904
1633.03,-0.09912
1633.04,-0.09879
1633.05,-0.09896
1633.06,-0.09899
1633.07,-0.09851
1633.08,-0.09931
1633.09,-0.10057
1633.1,-0.09914
1633.11,-0.10028
1633.12,-0.10041
1633.13,-0.1006
1633.14,-0.10047
1633.15,-0.10076
1633.16,-0.10071
1633.17,-0.10069
1633.18,-0.10074
1633.19,-0.10099
1633.2,-0.10093
1633.21,-0.10139
1633.22,-0.10129
1633.23,-0.10049
1633.24,-0.10127
1633.25,-0.10123
1633.26,-0.10173
1633.27,-0.10095
1633.28,-0.10133
1633.29,-0.10104
1633.3,-0.10145
1633.31,-0.10186
1633.32,-0.10188
1633.33,-0.10219
1633.34,-0.10191
1633.35,-0.10095
1633.36,-0.10081
1633.37,-0.10076
1633.38,-0.09988
1633.39,-0.09982
1633.4,-0.09993
1633.41,-0.10008
1633.42,-0.10029
1633.43,-0.09986
1633.44,-0.10044
1633.45,-0.09985
1633.46,-0.10048
1633.47,-0.10058
1633.48,-0.10025
1633.49,-0.0998
1633.5,-0.10065
1633.51,-0.10057
1633.52,-0.10118
1633.53,-0.10129
1633.54,-0.10207
1633.55,-0.10216
1633.56,-0.10249
1633.57,-0.10242
1633.58,-0.10222
1633.59,-0.10252
1633.6,-0.1019
1633.61,-0.1018
1633.62,-0.10215
1633.63,-0.1012
1633.64,-0.10165
1633.65,-0.10145
1633.66,-0.10161
1633.67,-0.10095
1633.68,-0.10031
1633.69,-0.09992
1633.7,-0.09993
1633.71,-0.09938
1633.72,-0.09954
1633.73,-0.09848
1633.74,-0.09864
1633.75,-0.09889
1633.76,-0.09928
1633.77,-0.09906
1633.78,-0.09906
1633.79,-0.09928
1633.8,-0.09858
1633.81,-0.09862
1633.82,-0.09848
1633.83,-0.09886
1633.84,-0.09841
1633.85,-0.0995
1633.86,-0.09975
1633.87,-0.10003
1633.88,-0.101
1633.89,-0.10098
1633.9,-0.10159
1633.91,-0.10144
1633.92,-0.10105
1633.93,-0.1011
1633.94,-0.10033
1633.95,-0.09997
1633.96,-0.09901
1633.97,-0.09915
1633.98,-0.0988
1633.99,-0.09886
1634,-0.09947
1634.01,-0.09903
1634.02,-0.0983
1634.03,-0.09885
1634.04,-0.09859
1634.05,-0.09847
1634.06,-0.09838
1634.07,-0.09915
1634.08,-0.09937
1634.09,-0.09997
1634.1,-0.10021
1634.11,-0.10133
1634.12,-0.10125
1634.13,-0.10211
1634.14,-0.10199
1634.15,-0.10195
1634.16,-0.10158
1634.17,-0.1012
1634.18,-0.10076
1634.19,-0.1008
1634.2,-0.10109
1634.21,-0.10055
1634.22,-0.10051
1634.23,-0.10052
1634.24,-0.10185
1634.25,-0.10018
1634.26,-0.09924
1634.27,-0.10094
1634.28,-0.10013
1634.29,-0.10129
1634.3,-0.10072
1634.31,-0.10222
1634.32,-0.10222
1634.33,-0.10217
1634.34,-0.10277
1634.35,-0.10261
1634.36,-0.10276
1634.37,-0.1024
1634.38,-0.10292
1634.39,-0.10132
1634.4,-0.10211
1634.41,-0.10144
1634.42,-0.10292
1634.43,-0.10292
1634.44,-0.10312
1634.45,-0.10367
1634.46,-0.10296
1634.47,-0.10353
1634.48,-0.10254
1634.49,-0.10257
1634.5,-0.10236
1634.51,-0.1023
1634.52,-0.10239
1634.53,-0.10231
1634.54,-0.10276
1634.55,-0.10256
1634.56,-0.10279
1634.57,-0.10311
1634.58,-0.10262
1634.59,-0.10306
1634.6,-0.10274
1634.61,-0.10266
1634.62,-0.10244
1634.63,-0.10224
1634.64,-0.10248
1634.65,-0.10331
1634.66,-0.10272
1634.67,-0.10323
1634.68,-0.1031
1634.69,-0.10326
1634.7,-0.10328
1634.71,-0.10289
1634.72,-0.10334
1634.73,-0.10283
1634.74,-0.1026
1634.75,-0.10345
1634.76,-0.10345
1634.77,-0.10386
1634.78,-0.10391
1634.79,-0.10406
1634.8,-0.1038
1634.81,-0.104
1634.82,-0.10365
1634.83,-0.10329
1634.84,-0.10317
1634.85,-0.10309
1634.86,-0.10267
1634.87,-0.10278
1634.88,-0.10339
1634.89,-0.10255
1634.9,-0.10312
1634.91,-0.10283
1634.92,-0.1025
1634.93,-0.10278
1634.94,-0.1023
1634.95,-0.10243
1634.96,-0.10235
1634.97,-0.10235
1634.98,-0.10176
1634.99,-0.10263
1635,-0.10252
1635.01,-0.10329
1635.02,-0.10305
1635.03,-0.10298
1635.04,-0.10256
1635.05,-0.10352
1635.06,-0.10274
1635.07,-0.10302
1635.08,-0.10291
1635.09,-0.10235
1635.1,-0.10273
1635.11,-0.10241
1635.12,-0.10272
1635.13,-0.10212
1635.14,-0.10153
1635.15,-0.10264
1635.16,-0.10173
1635.17,-0.10202
1635.18,-0.10236
1635.19,-0.1016
1635.2,-0.1017
1635.21,-0.10166
1635.22,-0.10142
1635.23,-0.10193
1635.24,-0.10273
1635.25,-0.10328
1635.26,-0.10474
1635.27,-0.10534
1635.28,-0.10432
1635.29,-0.10386
1635.3,-0.11515
1635.31,-0.16477
1635.32,-0.27748
1635.33,-0.47795
1635.34,-0.77271
1635.35,-1.19153
1635.36,-1.62154
1635.37,-2.04279
1635.38,-2.39386
1635.39,-2.62828
1635.4,-2.71478
1635.41,-2.63981
1635.42,-2.38275
1635.43,-2.00091
1635.44,-1.56828
1635.45,-1.13644
1635.46,-0.76767
1635.47,-0.49436
1635.48,-0.31155
1635.49,-0.19578
1635.5,-0.13698
1635.51,-0.11607
1635.52,-0.1076
1635.53,-0.10591
1635.54,-0.10548
1635.55,-0.10543
1635.56,-0.10522
1635.57,-0.10419
1635.58,-0.10422
1635.59,-0.10309
1635.6,-0.10281
1635.61,-0.10299
1635.62,-0.10253
1635.63,-0.1025
1635.64,-0.10225
1635.65,-0.10309
1635.66,-0.10239
1635.67,-0.10336
1635.68,-0.10366
1635.69,-0.10323
1635.7,-0.10339
1635.71,-0.10313
1635.72,-0.10253
1635.73,-0.10433
1635.74,-0.10357
1635.75,-0.10396
1635.76,-0.10463
1635.77,-0.10463
1635.78,-0.10536
1635.79,-0.10544
1635.8,-0.10592
1635.81,-0.10638
1635.82,-0.10577
1635.83,-0.10565
1635.84,-0.10539
1635.85,-0.10484
1635.86,-0.10536
1635.87,-0.10516
1635.88,-0.10573
1635.89,-0.10619
1635.9,-0.10538
1635.91,-0.10682
1635.92,-0.10624
1635.93,-0.10641
1635.94,-0.10639
1635.95,-0.10587
1635.96,-0.10587
1635.97,-0.10574
1635.98,-0.10552
1635.99,-0.10523
1636,-0.10543
1636.01,-0.10452
1636.02,-0.10497
1636.03,-0.10484
1636.04,-0.10471
1636.05,-0.1044
1636.06,-0.10383
1636.07,-0.10405
1636.08,-0.10418
1636.09,-0.10386
1636.1,-0.10406
1636.11,-0.10475
1636.12,-0.10459
1636.13,-0.10452
1636.14,-0.10476
1636.15,-0.10476
1636.16,-0.10493
1636.17,-0.10521
1636.18,-0.10533
1636.19,-0.10554
1636.2,-0.10581
1636.21,-0.10558
1636.22,-0.10632
1636.23,-0.10676
1636.24,-0.10753
1636.25,-0.10641
1636.26,-0.10625
1636.27,-0.10591
1636.28,-0.10535
1636.29,-0.10524
1636.3,-0.10468
1636.31,-0.10433
1636.32,-0.10417
1636.33,-0.1039
1636.34,-0.10345
1636.35,-0.10343
1636.36,-0.10311
1636.37,-0.10315
1636.38,-0.10285
1636.39,-0.10243
1636.4,-0.10275
1636.41,-0.10244
1636.42,-0.10299
1636.43,-0.10262
1636.44,-0.10302
1636.45,-0.10333
1636.46,-0.1029
1636.47,-0.10371
1636.48,-0.10384
1636.49,-0.10344
1636.5,-0.10316
1636.51,-0.10431
1636.52,-0.1041
1636.53,-0.10508
1636.54,-0.10494
1636.55,-0.10539
1636.56,-0.10511
1636.57,-0.10532
1636.58,-0.10473
1636.59,-0.10383
1636.6,-0.10378
1636.61,-0.10247
1636.62,-0.10248
1636.63,-0.10253
1636.64,-0.10163
1636.65,-0.10225
1636.66,-0.10194
1636.67,-0.10243
1636.68,-0.10275
1636.69,-0.10274
1636.7,-0.103
1636.71,-0.10326
1636.72,-0.10329
1636.73,-0.10274
1636.74,-0.10549
1636.75,-0.10378
1636.76,-0.105
1636.77,-0.10486
1636.78,-0.10573
1636.79,-0.10539
1636.8,-0.10547
1636.81,-0.10518
1636.82,-0.10476
1636.83,-0.10378
1636.84,-0.10316
1636.85,-0.10292
1636.86,-0.10279
1636.87,-0.10292
1636.88,-0.10238
1636.89,-0.10292
1636.9,-0.10289
1636.91,-0.1031
1636.92,-0.10313
1636.93,-0.10378
1636.94,-0.10332
1636.95,-0.10373
1636.96,-0.10366
1636.97,-0.10451
1636.98,-0.10463
1636.99,-0.10473
1637,-0.10478
1637.01,-0.10485
1637.02,-0.10537
1637.03,-0.10506
1637.04,-0.10487
1637.05,-0.10547
1637.06,-0.10532
1637.07,-0.1054
1637.08,-0.1051
1637.09,-0.10569
1637.1,-0.10533
1637.11,-0.10591
1637.12,-0.10507
1637.13,-0.10529
1637.14,-0.10485
1637.15,-0.10457
1637.16,-0.10447
1637.17,-0.1038
1637.18,-0.10334
1637.19,-0.10321
1637.2,-0.10306
1637.21,-0.10368
1637.22,-0.10336
1637.23,-0.1035
1637.24,-0.10448
1637.25,-0.10376
1637.26,-0.10427
1637.27,-0.10422
1637.28,-0.10426
1637.29,-0.10419
1637.3,-0.10472
1637.31,-0.10471
1637.32,-0.10502
1637.33,-0.10546
1637.34,-0.10535
1637.35,-0.10594
1637.36,-0.10527
1637.37,-0.10533
1637.38,-0.10502
1637.39,-0.10438
1637.4,-0.10472
1637.41,-0.10442
1637.42,-0.10454
1637.43,-0.10446
1637.44,-0.10466
1637.45,-0.10441
1637.46,-0.10487
1637.47,-0.10417
1637.48,-0.10396
1637.49,-0.10601
1637.5,-0.10382
1637.51,-0.10496
1637.52,-0.10566
1637.53,-0.10685
1637.54,-0.10684
1637.55,-0.10659
1637.56,-0.11129
1637.57,-0.13089
1637.58,-0.19397
1637.59,-0.32545
1637.6,-0.55889
1637.61,-0.89993
1637.62,-1.30091
1637.63,-1.72128
1637.64,-2.08595
1637.65,-2.33493
1637.66,-2.47154
1637.67,-2.4586
1637.68,-2.30058
1637.69,-2.01784
1637.7,-1.641
1637.71,-1.25146
1637.72,-0.87931
1637.73,-0.56899
1637.74,-0.34404
1637.75,-0.21624
1637.76,-0.14915
1637.77,-0.1193
1637.78,-0.10997
1637.79,-0.10741
1637.8,-0.10655
1637.81,-0.10619
1637.82,-0.10649
1637.83,-0.10594
1637.84,-0.1059
1637.85,-0.10548
1637.86,-0.10561
1637.87,-0.10537
1637.88,-0.10594
1637.89,-0.10613
1637.9,-0.10609
1637.91,-0.10635
1637.92,-0.10632
1637.93,-0.10604
1637.94,-0.10508
1637.95,-0.10483
1637.96,-0.1044
1637.97,-0.10448
1637.98,-0.10401
1637.99,-0.10339
1638,-0.10486
1638.01,-0.10474
1638.02,-0.10457
1638.03,-0.10484
1638.04,-0.10531
1638.05,-0.10521
1638.06,-0.10559
1638.07,-0.10587
1638.08,-0.10607
1638.09,-0.10636
1638.1,-0.10671
1638.11,-0.10658
1638.12,-0.10777
1638.13,-0.10725
1638.14,-0.10666
1638.15,-0.10607
1638.16,-0.10551
1638.17,-0.10499
1638.18,-0.10429
1638.19,-0.10369
1638.2,-0.10411
1638.21,-0.10428
1638.22,-0.104
1638.23,-0.10477
1638.24,-0.10194
1638.25,-0.10479
1638.26,-0.10408
1638.27,-0.10436
1638.28,-0.1046
1638.29,-0.10441
1638.3,-0.10408
1638.31,-0.10452
1638.32,-0.10497
1638.33,-0.10565
1638.34,-0.10638
1638.35,-0.10725
1638.36,-0.10684
1638.37,-0.10753
1638.38,-0.1072
1638.39,-0.10737
1638.4,-0.10692
1638.41,-0.10721
1638.42,-0.10658
1638.43,-0.10632
1638.44,-0.1074
1638.45,-0.10811
1638.46,-0.10883
1638.47,-0.11074
1638.48,-0.11118
1638.49,-0.1111
1638.5,-0.11069
1638.51,-0.10962
1638.52,-0.10869
1638.53,-0.10824
1638.54,-0.10759
1638.55,-0.10682
1638.56,-0.10672
1638.57,-0.10639
1638.58,-0.10632
1638.59,-0.10573
1638.6,-0.10553
1638.61,-0.10552
1638.62,-0.10504
1638.63,-0.10502
1638.64,-0.10439
1638.65,-0.10506
1638.66,-0.10496
1638.67,-0.10517
1638.68,-0.10528
1638.69,-0.10566
1638.7,-0.10594
1638.71,-0.10642
1638.72,-0.10635
1638.73,-0.10711
1638.74,-0.10736
1638.75,-0.1082
1638.76,-0.10815
1638.77,-0.10934
1638.78,-0.10965
1638.79,-0.10966
1638.8,-0.11061
1638.81,-0.11034
1638.82,-0.11079
1638.83,-0.11024
1638.84,-0.10985
1638.85,-0.10934
1638.86,-0.10885
1638.87,-0.10786
1638.88,-0.1073
1638.89,-0.10733
1638.9,-0.10708
1638.91,-0.1063
1638.92,-0.10657
1638.93,-0.10588
1638.94,-0.10642
1638.95,-0.10616
1638.96,-0.10573
1638.97,-0.10608
1638.98,-0.10583
1638.99,-0.10579
1639,-0.10678
1639.01,-0.10681
1639.02,-0.10671
1639.03,-0.10719
1639.04,-0.10766
1639.05,-0.10807
1639.06,-0.10849
1639.07,-0.10947
1639.08,-0.11008
1639.09,-0.11099
1639.1,-0.1113
1639.11,-0.11203
1639.12,-0.1124
1639.13,-0.11264
1639.14,-0.11195
1639.15,-0.11135
1639.16,-0.1102
1639.17,-0.10946
1639.18,-0.10793
1639.19,-0.1077
1639.2,-0.10686
1639.21,-0.10657
1639.22,-0.10623
1639.23,-0.10631
1639.24,-0.10637
1639.25,-0.10703
1639.26,-0.10634
1639.27,-0.10712
1639.28,-0.1071
1639.29,-0.1074
1639.3,-0.10781
1639.31,-0.10824
1639.32,-0.109
1639.33,-0.11033
1639.34,-0.1108
1639.35,-0.11164
1639.36,-0.11129
1639.37,-0.11164
1639.38,-0.1107
1639.39,-0.11003
1639.4,-0.10948
1639.41,-0.10777
1639.42,-0.10686
1639.43,-0.10676
1639.44,-0.10593
1639.45,-0.10666
1639.46,-0.10615
1639.47,-0.1064
1639.48,-0.10634
1639.49,-0.10653
1639.5,-0.1065
1639.51,-0.10683
1639.52,-0.10698
1639.53,-0.10738
1639.54,-0.10766
1639.55,-0.10825
1639.56,-0.10764
1639.57,-0.10801
1639.58,-0.10824
1639.59,-0.10761
1639.6,-0.1079
1639.61,-0.10752
1639.62,-0.10771
1639.63,-0.10749
1639.64,-0.10775
1639.65,-0.1081
1639.66,-0.10803
1639.67,-0.1085
1639.68,-0.10873
1639.69,-0.10843
1639.7,-0.10797
1639.71,-0.10811
1639.72,-0.10711
1639.73,-0.10724
1639.74,-0.1063
1639.75,-0.10632
1639.76,-0.10621
1639.77,-0.10568
1639.78,-0.10534
1639.79,-0.10624
1639.8,-0.1059
1639.81,-0.10555
1639.82,-0.10579
1639.83,-0.10536
1639.84,-0.10536
1639.85,-0.10446
1639.86,-0.10444
1639.87,-0.10519
1639.88,-0.10465
1639.89,-0.10468
1639.9,-0.10512
1639.91,-0.10585
1639.92,-0.1061
1639.93,-0.10624
1639.94,-0.10695
1639.95,-0.10705
1639.96,-0.10802
1639.97,-0.10715
1639.98,-0.10808
1639.99,-0.10734
1640,-0.10728
1640.01,-0.10699
1640.02,-0.10648
1640.03,-0.10719
1640.04,-0.10709
1640.05,-0.10689
1640.06,-0.10667
1640.07,-0.10715
1640.08,-0.10719
1640.09,-0.10666
1640.1,-0.10698
1640.11,-0.10517
1640.12,-0.10693
1640.13,-0.10712
1640.14,-0.10744
1640.15,-0.10811
1640.16,-0.1092
1640.17,-0.11054
1640.18,-0.11093
1640.19,-0.11055
1640.2,-0.11007
1640.21,-0.1196
1640.22,-0.16022
1640.23,-0.26696
1640.24,-0.4704
1640.25,-0.77872
1640.26,-1.19092
1640.27,-1.65308
1640.28,-2.07207
1640.29,-2.38801
1640.3,-2.58111
1640.31,-2.63064
1640.32,-2.54002
1640.33,-2.30275
1640.34,-1.93781
1640.35,-1.53097
1640.36,-1.1279
1640.37,-0.75487
1640.38,-0.45914
1640.39,-0.28033
1640.4,-0.18273
1640.41,-0.13791
1640.42,-0.1202
1640.43,-0.11436
1640.44,-0.11216
1640.45,-0.11159
1640.46,-0.11166
1640.47,-0.11143
1640.48,-0.11206
1640.49,-0.1104
1640.5,-0.11189
1640.51,-0.11077
1640.52,-0.11132
1640.53,-0.11021
1640.54,-0.11014
1640.55,-0.11042
1640.56,-0.10933
1640.57,-0.10994
1640.58,-0.10918
1640.59,-0.10929
1640.6,-0.10909
1640.61,-0.10811
1640.62,-0.10922
1640.63,-0.10839
1640.64,-0.10886
1640.65,-0.10766
1640.66,-0.10889
1640.67,-0.10889
1640.68,-0.11004
1640.69,-0.11096
1640.7,-0.11101
1640.71,-0.11217
1640.72,-0.1122
1640.73,-0.11247
1640.74,-0.11132
1640.75,-0.11213
1640.76,-0.11085
1640.77,-0.11051
1640.78,-0.10965
1640.79,-0.1086
1640.8,-0.10863
1640.81,-0.10821
1640.82,-0.10778
1640.83,-0.1074
1640.84,-0.107
1640.85,-0.10706
1640.86,-0.10625
1640.87,-0.1062
1640.88,-0.10652
1640.89,-0.1065
1640.9,-0.10645
1640.91,-0.1064
1640.92,-0.10718
1640.93,-0.10734
1640.94,-0.10715
1640.95,-0.10817
1640.96,-0.10838
1640.97,-0.10919
1640.98,-0.10875
1640.99,-0.10963
1641,-0.10956
1641.01,-0.1099
1641.02,-0.10984
1641.03,-0.10961
1641.04,-0.10981
1641.05,-0.10928
1641.06,-0.1086
1641.07,-0.1101
1641.08,-0.10923
1641.09,-0.10876
1641.1,-0.11073
1641.11,-0.11062
1641.12,-0.11159
1641.13,-0.11173
1641.14,-0.11192
1641.15,-0.11181
1641.16,-0.11075
1641.17,-0.11043
1641.18,-0.10957
1641.19,-0.10804
1641.2,-0.10781
1641.21,-0.10685
1641.22,-0.10679
1641.23,-0.10549
1641.24,-0.10654
1641.25,-0.10686
1641.26,-0.10622
1641.27,-0.10538
1641.28,-0.10644
1641.29,-0.10652
1641.3,-0.1062
1641.31,-0.10669
1641.32,-0.10611
1641.33,-0.10726
1641.34,-0.10765
1641.35,-0.10879
1641.36,-0.1097
1641.37,-0.11077
1641.38,-0.1117
1641.39,-0.11178
1641.4,-0.11221
1641.41,-0.11395
1641.42,-0.11345
1641.43,-0.11349
1641.44,-0.11299
1641.45,-0.11339
1641.46,-0.11328
1641.47,-0.11317
1641.48,-0.11246
1641.49,-0.11156
1641.5,-0.11067
1641.51,-0.10923
1641.52,-0.10878
1641.53,-0.10785
1641.54,-0.10697
1641.55,-0.1068
1641.56,-0.10617
1641.57,-0.10706
1641.58,-0.10482
1641.59,-0.10766
1641.6,-0.1068
1641.61,-0.10712
1641.62,-0.10722
1641.63,-0.10704
1641.64,-0.1068
1641.65,-0.10706
1641.66,-0.10731
1641.67,-0.1082
1641.68,-0.10844
1641.69,-0.10993
1641.7,-0.11093
1641.71,-0.11208
1641.72,-0.11398
1641.73,-0.11587
1641.74,-0.11497
1641.75,-0.11665
1641.76,-0.11576
1641.77,-0.1151
1641.78,-0.11391
1641.79,-0.11272
1641.8,-0.11204
1641.81,-0.11088
1641.82,-0.10978
1641.83,-0.10929
1641.84,-0.10836
1641.85,-0.10849
1641.86,-0.1077
1641.87,-0.10752
1641.88,-0.10722
1641.89,-0.10742
1641.9,-0.10788
1641.91,-0.10707
1641.92,-0.10843
1641.93,-0.10923
1641.94,-0.1099
1641.95,-0.11109
1641.96,-0.11196
1641.97,-0.11291
1641.98,-0.11303
1641.99,-0.11323
1642,-0.11289
1642.01,-0.11213
1642.02,-0.11156
1642.03,-0.11103
1642.04,-0.11002
1642.05,-0.10946
1642.06,-0.10744
1642.07,-0.10898
1642.08,-0.10721
1642.09,-0.10679
1642.1,-0.10727
1642.11,-0.1065
1642.12,-0.10707
1642.13,-0.10723
1642.14,-0.10785
1642.15,-0.10885
1642.16,-0.1096
1642.17,-0.10977
1642.18,-0.11077
1642.19,-0.10966
1642.2,-0.11045
1642.21,-0.10953
1642.22,-0.10905
1642.23,-0.1082
1642.24,-0.10855
1642.25,-0.10869
1642.26,-0.10954
1642.27,-0.10866
1642.28,-0.11018
1642.29,-0.1096
1642.3,-0.10947
1642.31,-0.10925
1642.32,-0.10847
1642.33,-0.10787
1642.34,-0.10778
1642.35,-0.10763
1642.36,-0.10742
1642.37,-0.10773
1642.38,-0.1077
1642.39,-0.10743
1642.4,-0.10717
1642.41,-0.10693
1642.42,-0.10668
1642.43,-0.10685
1642.44,-0.10617
1642.45,-0.10619
1642.46,-0.10632
1642.47,-0.10655
1642.48,-0.10612
1642.49,-0.10689
1642.5,-0.10631
1642.51,-0.10563
1642.52,-0.10645
1642.53,-0.10665
1642.54,-0.10559
1642.55,-0.10567
1642.56,-0.10601
1642.57,-0.10561
1642.58,-0.10609
1642.59,-0.10591
1642.6,-0.10623
1642.61,-0.10705
1642.62,-0.10689
1642.63,-0.10771
1642.64,-0.10791
1642.65,-0.10857
1642.66,-0.10777
1642.67,-0.10768
1642.68,-0.1068
1642.69,-0.10682
1642.7,-0.10769
1642.71,-0.10747
1642.72,-0.1082
1642.73,-0.11013
1642.74,-0.10972
1642.75,-0.10994
1642.76,-0.10887
1642.77,-0.11407
1642.78,-0.1512
1642.79,-0.25634
1642.8,-0.47083
1642.81,-0.83788
1642.82,-1.39264
1642.83,-2.0284
1642.84,-2.69718
1642.85,-3.33956
1642.86,-3.8556
1642.87,-4.19702
1642.88,-4.28109
1642.89,-4.12275
1642.9,-3.78421
1642.91,-3.24378
1642.92,-2.61907
1642.93,-1.96842
1642.94,-1.35851
1642.95,-0.85929
1642.96,-0.5034
1642.97,-0.29955
1642.98,-0.18594
1642.99,-0.13464
1643,-0.11803
1643.01,-0.11287
1643.02,-0.11149
1643.03,-0.11105
1643.04,-0.11074
1643.05,-0.11028
1643.06,-0.10941
1643.07,-0.10874
1643.08,-0.10848
1643.09,-0.10879
1643.1,-0.10826
1643.11,-0.10838
1643.12,-0.10817
1643.13,-0.1085
1643.14,-0.10934
1643.15,-0.10961
1643.16,-0.10988
1643.17,-0.11031
1643.18,-0.10977
1643.19,-0.11027
1643.2,-0.11014
1643.21,-0.10985
1643.22,-0.10991
1643.23,-0.10934
1643.24,-0.10868
1643.25,-0.11083
1643.26,-0.10829
1643.27,-0.1097
1643.28,-0.10983
1643.29,-0.10923
1643.3,-0.10879
1643.31,-0.10868
1643.32,-0.10858
1643.33,-0.10874
1643.34,-0.10915
1643.35,-0.10834
1643.36,-0.10939
1643.37,-0.11079
1643.38,-0.11099
1643.39,-0.1111
1643.4,-0.11194
1643.41,-0.11212
1643.42,-0.11214
1643.43,-0.11164
1643.44,-0.11069
1643.45,-0.11122
1643.46,-0.1104
1643.47,-0.11018
1643.48,-0.1096
1643.49,-0.10862
1643.5,-0.1091
1643.51,-0.10905
1643.52,-0.10919
1643.53,-0.10839
1643.54,-0.108
1643.55,-0.10813
1643.56,-0.10787
1643.57,-0.10785
1643.58,-0.10796
1643.59,-0.1081
1643.6,-0.10846
1643.61,-0.10822
1643.62,-0.10808
1643.63,-0.10918
1643.64,-0.10913
1643.65,-0.10958
1643.66,-0.10999
1643.67,-0.11043
1643.68,-0.11061
1643.69,-0.11075
1643.7,-0.11154
1643.71,-0.11168
1643.72,-0.11184
1643.73,-0.11058
1643.74,-0.11128
1643.75,-0.11073
1643.76,-0.1112
1643.77,-0.11108
1643.78,-0.11228
1643.79,-0.11227
1643.8,-0.11271
1643.81,-0.11337
1643.82,-0.11346
1643.83,-0.11358
1643.84,-0.11346
1643.85,-0.11239
1643.86,-0.11124
1643.87,-0.11116
1643.88,-0.11014
1643.89,-0.10877
1643.9,-0.10909
1643.91,-0.10857
1643.92,-0.10802
1643.93,-0.10815
1643.94,-0.10825
1643.95,-0.10861
1643.96,-0.10838
1643.97,-0.10885
1643.98,-0.1084
1643.99,-0.10831
1644,-0.10832
1644.01,-0.10827
1644.02,-0.10901
1644.03,-0.10955
1644.04,-0.11034
1644.05,-0.11153
1644.06,-0.11161
1644.07,-0.11266
1644.08,-0.11365
1644.09,-0.1132
1644.1,-0.114
1644.11,-0.11386
1644.12,-0.11437
1644.13,-0.11411
1644.14,-0.11411
1644.15,-0.1139
1644.16,-0.11372
1644.17,-0.11285
1644.18,-0.11208
1644.19,-0.11113
1644.2,-0.11041
1644.21,-0.10935
1644.22,-0.10844
1644.23,-0.10795
1644.24,-0.10775
1644.25,-0.10765
1644.26,-0.10777
1644.27,-0.10786
1644.28,-0.10833
1644.29,-0.10812
1644.3,-0.10774
1644.31,-0.10791
1644.32,-0.10742
1644.33,-0.10792
1644.34,-0.10743
1644.35,-0.10812
1644.36,-0.10781
1644.37,-0.10876
1644.38,-0.10979
1644.39,-0.11081
1644.4,-0.11215
1644.41,-0.11272
1644.42,-0.11407
1644.43,-0.11423
1644.44,-0.11464
1644.45,-0.11457
1644.46,-0.11405
1644.47,-0.11291
1644.48,-0.1122
1644.49,-0.11188
1644.5,-0.1109
1644.51,-0.11086
1644.52,-0.10963
1644.53,-0.10928
1644.54,-0.10848
1644.55,-0.10816
1644.56,-0.10846
1644.57,-0.10863
1644.58,-0.10747
1644.59,-0.10831
1644.6,-0.10778
1644.61,-0.10936
1644.62,-0.1097
1644.63,-0.11029
1644.64,-0.11096
1644.65,-0.11144
1644.66,-0.11242
1644.67,-0.11291
1644.68,-0.11311
1644.69,-0.11305
1644.7,-0.11275
1644.71,-0.11234
1644.72,-0.11167
1644.73,-0.11032
1644.74,-0.11165
1644.75,-0.11009
1644.76,-0.10936
1644.77,-0.10907
1644.78,-0.11004
1644.79,-0.10831
1644.8,-0.10865
1644.81,-0.10938
1644.82,-0.10931
1644.83,-0.11027
1644.84,-0.1102
1644.85,-0.11115
1644.86,-0.11095
1644.87,-0.11175
1644.88,-0.11217
1644.89,-0.11177
1644.9,-0.11179
1644.91,-0.11153
1644.92,-0.11041
1644.93,-0.11097
1644.94,-0.11069
1644.95,-0.11107
1644.96,-0.11202
1644.97,-0.11184
1644.98,-0.11208
1644.99,-0.11244
1645,-0.11171
1645.01,-0.11126
1645.02,-0.11121
1645.03,-0.11084
1645.04,-0.11035
1645.05,-0.11132
1645.06,-0.11042
1645.07,-0.11263
1645.08,-0.11039
1645.09,-0.11137
1645.1,-0.111
1645.11,-0.1113
1645.12,-0.11073
1645.13,-0.11049
1645.14,-0.11075
1645.15,-0.111
1645.16,-0.11089
1645.17,-0.11114
1645.18,-0.11061
1645.19,-0.11065
1645.2,-0.10963
1645.21,-0.10959
1645.22,-0.10931
1645.23,-0.11007
1645.24,-0.10876
1645.25,-0.10991
1645.26,-0.1103
1645.27,-0.1106
1645.28,-0.11118
1645.29,-0.11128
1645.3,-0.11096
1645.31,-0.11109
1645.32,-0.11113
1645.33,-0.11123
1645.34,-0.11178
1645.35,-0.1125
1645.36,-0.1137
1645.37,-0.1153
1645.38,-0.11561
1645.39,-0.11412
1645.4,-0.12937
1645.41,-0.20405
1645.42,-0.38029
1645.43,-0.70149
1645.44,-1.24037
1645.45,-1.99999
1645.46,-2.88883
1645.47,-3.78951
1645.48,-4.55751
1645.49,-5.16489
1645.5,-5.51437
1645.51,-5.6087
1645.52,-5.44285
1645.53,-5.05923
1645.54,-4.48683
1645.55,-3.72235
1645.56,-2.88238
1645.57,-2.04923
1645.58,-1.35686
1645.59,-0.80209
1645.6,-0.45213
1645.61,-0.25401
1645.62,-0.16338
1645.63,-0.13085
1645.64,-0.12072
1645.65,-0.11808
1645.66,-0.11557
1645.67,-0.11518
1645.68,-0.11306
1645.69,-0.11199
1645.7,-0.11102
1645.71,-0.11018
1645.72,-0.11041
1645.73,-0.11042
1645.74,-0.10973
1645.75,-0.11059
1645.76,-0.10955
1645.77,-0.10883
1645.78,-0.10876
1645.79,-0.10937
1645.8,-0.10892
1645.81,-0.10934
1645.82,-0.10906
1645.83,-0.1094
1645.84,-0.1101
1645.85,-0.11112
1645.86,-0.11084
1645.87,-0.11119
1645.88,-0.11181
1645.89,-0.11162
1645.9,-0.112
1645.91,-0.11163
1645.92,-0.11105
1645.93,-0.11065
1645.94,-0.11089
1645.95,-0.11051
1645.96,-0.1103
1645.97,-0.11067
1645.98,-0.11015
1645.99,-0.10962
1646,-0.11126
1646.01,-0.10915
1646.02,-0.10899
1646.03,-0.10993
1646.04,-0.10983
1646.05,-0.11063
1646.06,-0.11159
1646.07,-0.11208
1646.08,-0.11305
1646.09,-0.11337
1646.1,-0.11422
1646.11,-0.11436
1646.12,-0.11495
1646.13,-0.11434
1646.14,-0.11471
1646.15,-0.1137
1646.16,-0.11392
1646.17,-0.11258
1646.18,-0.11247
1646.19,-0.11238
1646.2,-0.11123
1646.21,-0.11123
1646.22,-0.10984
1646.23,-0.1116
1646.24,-0.10996
1646.25,-0.11063
1646.26,-0.11032
1646.27,-0.11029
1646.28,-0.11075
1646.29,-0.1108
1646.3,-0.11082
1646.31,-0.11133
1646.32,-0.11099
1646.33,-0.11217
1646.34,-0.11154
1646.35,-0.11277
1646.36,-0.11264
1646.37,-0.11351
1646.38,-0.11414
1646.39,-0.11451
1646.4,-0.11455
1646.41,-0.11505
1646.42,-0.11495
1646.43,-0.11468
1646.44,-0.11405
1646.45,-0.11396
1646.46,-0.11417
1646.47,-0.11427
1646.48,-0.11475
1646.49,-0.11534
1646.5,-0.11611
1646.51,-0.1171
1646.52,-0.11766
1646.53,-0.11773
1646.54,-0.11715
1646.55,-0.11672
1646.56,-0.11586
1646.57,-0.11508
1646.58,-0.11432
1646.59,-0.113
1646.6,-0.11212
1646.61,-0.11188
1646.62,-0.11193
1646.63,-0.11102
1646.64,-0.11116
1646.65,-0.11071
1646.66,-0.11045
1646.67,-0.11073
1646.68,-0.11021
1646.69,-0.10994
1646.7,-0.11058
1646.71,-0.11042
1646.72,-0.11045
1646.73,-0.11087
1646.74,-0.11177
1646.75,-0.11235
1646.76,-0.11372
1646.77,-0.11366
1646.78,-0.11474
1646.79,-0.11506
1646.8,-0.11552
1646.81,-0.11564
1646.82,-0.11579
1646.83,-0.11672
1646.84,-0.11716
1646.85,-0.11651
1646.86,-0.1166
1646.87,-0.1162
1646.88,-0.11495
1646.89,-0.11387
1646.9,-0.11287
1646.91,-0.11184
1646.92,-0.11029
1646.93,-0.11018
1646.94,-0.10967
1646.95,-0.10898
1646.96,-0.10931
1646.97,-0.10933
1646.98,-0.10919
1646.99,-0.10881
1647,-0.10832
1647.01,-0.10884
1647.02,-0.10851
1647.03,-0.10818
1647.04,-0.10877
1647.05,-0.10908
1647.06,-0.1093
1647.07,-0.1099
1647.08,-0.10987
1647.09,-0.11087
1647.1,-0.11189
1647.11,-0.11221
1647.12,-0.11396
1647.13,-0.11465
1647.14,-0.11525
1647.15,-0.11618
1647.16,-0.11573
1647.17,-0.11607
1647.18,-0.11534
1647.19,-0.11457
1647.2,-0.11344
1647.21,-0.11288
1647.22,-0.11233
1647.23,-0.11137
1647.24,-0.10997
1647.25,-0.1107
1647.26,-0.1102
1647.27,-0.1096
1647.28,-0.10981
1647.29,-0.1103
1647.3,-0.11045
1647.31,-0.11091
1647.32,-0.11045
1647.33,-0.11072
1647.34,-0.11162
1647.35,-0.11281
1647.36,-0.11305
1647.37,-0.11426
1647.38,-0.11486
1647.39,-0.11454
1647.4,-0.11534
1647.41,-0.11537
1647.42,-0.11435
1647.43,-0.11392
1647.44,-0.11297
1647.45,-0.112
1647.46,-0.11106
1647.47,-0.11101
1647.48,-0.11086
1647.49,-0.11089
1647.5,-0.11047
1647.51,-0.11094
1647.52,-0.11119
1647.53,-0.11156
1647.54,-0.11199
1647.55,-0.11222
1647.56,-0.11256
1647.57,-0.11349
1647.58,-0.11337
1647.59,-0.11383
1647.6,-0.11394
1647.61,-0.11398
1647.62,-0.11363
1647.63,-0.1136
1647.64,-0.1135
1647.65,-0.1134
1647.66,-0.11391
1647.67,-0.11359
1647.68,-0.11395
1647.69,-0.11368
1647.7,-0.11398
1647.71,-0.11347
1647.72,-0.11302
1647.73,-0.11472
1647.74,-0.11198
1647.75,-0.11239
1647.76,-0.1125
1647.77,-0.11214
1647.78,-0.1119
1647.79,-0.11177
1647.8,-0.11265
1647.81,-0.112
1647.82,-0.11251
1647.83,-0.11232
1647.84,-0.11269
1647.85,-0.11363
1647.86,-0.1137
1647.87,-0.11303
1647.88,-0.11315
1647.89,-0.11276
1647.9,-0.11252
1647.91,-0.112
1647.92,-0.11191
1647.93,-0.11182
1647.94,-0.1118
1647.95,-0.11282
1647.96,-0.11309
1647.97,-0.11346
1647.98,-0.11233
1647.99,-0.11324
1648,-0.11203
1648.01,-0.11181
1648.02,-0.11137
1648.03,-0.11209
1648.04,-0.11281
1648.05,-0.1141
1648.06,-0.11617
1648.07,-0.11708
1648.08,-0.11563
1648.09,-0.11592
1648.1,-0.13336
1648.11,-0.20613
1648.12,-0.42813
1648.13,-0.81752
1648.14,-1.37909
1648.15,-2.04601
1648.16,-2.81362
1648.17,-3.47033
1648.18,-3.96554
1648.19,-4.27418
1648.2,-4.39826
1648.21,-4.33702
1648.22,-4.05912
1648.23,-3.58577
1648.24,-2.97737
1648.25,-2.28982
1648.26,-1.59726
1648.27,-1.02166
1648.28,-0.61442
1648.29,-0.36856
1648.3,-0.22438
1648.31,-0.15453
1648.32,-0.13119
1648.33,-0.12072
1648.34,-0.11719
1648.35,-0.11638
1648.36,-0.11579
1648.37,-0.11518
1648.38,-0.11401
1648.39,-0.11361
1648.4,-0.11355
1648.41,-0.11312
1648.42,-0.11362
1648.43,-0.11341
1648.44,-0.11327
1648.45,-0.11239
1648.46,-0.11248
1648.47,-0.11242
1648.48,-0.11177
1648.49,-0.11223
1648.5,-0.11059
1648.51,-0.111
1648.52,-0.11153
1648.53,-0.11107
1648.54,-0.1114
1648.55,-0.11189
1648.56,-0.11107
1648.57,-0.1117
1648.58,-0.11144
1648.59,-0.11165
1648.6,-0.11142
1648.61,-0.11144
1648.62,-0.11144
1648.63,-0.11253
1648.64,-0.1124
1648.65,-0.11261
1648.66,-0.11362
1648.67,-0.11317
1648.68,-0.11283
1648.69,-0.11305
1648.7,-0.11252
1648.71,-0.11204
1648.72,-0.11247
1648.73,-0.11153
1648.74,-0.11263
1648.75,-0.11169
1648.76,-0.11193
1648.77,-0.11161
1648.78,-0.11239
1648.79,-0.11168
1648.8,-0.11251
1648.81,-0.1115
1648.82,-0.11229
1648.83,-0.11321
1648.84,-0.11327
1648.85,-0.11451
1648.86,-0.11527
1648.87,-0.11624
1648.88,-0.11629
1648.89,-0.11608
1648.9,-0.1158
1648.91,-0.11619
1648.92,-0.11451
1648.93,-0.1147
1648.94,-0.11366
1648.95,-0.11323
1648.96,-0.11309
1648.97,-0.11311
1648.98,-0.11271
1648.99,-0.11235
1649,-0.11169
1649.01,-0.11232
1649.02,-0.11169
1649.03,-0.11178
1649.04,-0.1114
1649.05,-0.11141
1649.06,-0.11141
1649.07,-0.11173
1649.08,-0.11224
1649.09,-0.11229
1649.1,-0.11258
1649.11,-0.11297
1649.12,-0.11322
1649.13,-0.11384
1649.14,-0.11373
1649.15,-0.11446
1649.16,-0.11403
1649.17,-0.11488
1649.18,-0.11485
1649.19,-0.11447
1649.2,-0.11498
1649.21,-0.11461
1649.22,-0.1145
1649.23,-0.11462
1649.24,-0.11469
1649.25,-0.11606
1649.26,-0.11657
1649.27,-0.1166
1649.28,-0.11693
1649.29,-0.1174
1649.3,-0.11743
1649.31,-0.11797
1649.32,-0.11747
1649.33,-0.11691
1649.34,-0.11591
1649.35,-0.11496
1649.36,-0.11414
1649.37,-0.1131
1649.38,-0.11247
1649.39,-0.11254
1649.4,-0.11258
1649.41,-0.11243
1649.42,-0.11272
1649.43,-0.11247
1649.44,-0.11297
1649.45,-0.11261
1649.46,-0.11228
1649.47,-0.11219
1649.48,-0.11242
1649.49,-0.11263
1649.5,-0.11218
1649.51,-0.11317
1649.52,-0.1145
1649.53,-0.11465
1649.54,-0.11613
1649.55,-0.11631
1649.56,-0.11707
1649.57,-0.11769
1649.58,-0.11749
1649.59,-0.11826
1649.6,-0.11861
1649.61,-0.1189
1649.62,-0.11905
1649.63,-0.11925
1649.64,-0.11796
1649.65,-0.11845
1649.66,-0.11699
1649.67,-0.1162
1649.68,-0.11525
1649.69,-0.11457
1649.7,-0.11305
1649.71,-0.11291
1649.72,-0.11253
1649.73,-0.1125
1649.74,-0.11301
1649.75,-0.11217
1649.76,-0.1127
1649.77,-0.1123
1649.78,-0.11305
1649.79,-0.11267
1649.8,-0.11226
1649.81,-0.11258
1649.82,-0.11251
1649.83,-0.11248
1649.84,-0.11274
1649.85,-0.11348
1649.86,-0.1136
1649.87,-0.11524
1649.88,-0.11542
1649.89,-0.11693
1649.9,-0.11859
1649.91,-0.1187
1649.92,-0.11896
1649.93,-0.11932
1649.94,-0.11856
1649.95,-0.11759
1649.96,-0.11767
1649.97,-0.11642
1649.98,-0.11539
1649.99,-0.11514
1650,-0.11401
1650.01,-0.11393
1650.02,-0.11335
1650.03,-0.11325
1650.04,-0.1133
1650.05,-0.11259
1650.06,-0.11313
1650.07,-0.11306
1650.08,-0.11331
1650.09,-0.11376
1650.1,-0.11407
1650.11,-0.11441
1650.12,-0.11564
1650.13,-0.11593
1650.14,-0.11656
1650.15,-0.11698
1650.16,-0.11735
1650.17,-0.11725
1650.18,-0.11699
1650.19,-0.11685
1650.2,-0.11607
1650.21,-0.11544
1650.22,-0.11418
1650.23,-0.11433
1650.24,-0.1137
1650.25,-0.11224
1650.26,-0.11238
1650.27,-0.11215
1650.28,-0.11244
1650.29,-0.11248
1650.3,-0.11278
1650.31,-0.11294
1650.32,-0.11395
1650.33,-0.1147
1650.34,-0.11495
1650.35,-0.11608
1650.36,-0.11477
1650.37,-0.11591
1650.38,-0.11527
1650.39,-0.11524
1650.4,-0.11415
1650.41,-0.11462
1650.42,-0.11421
1650.43,-0.11431
1650.44,-0.11481
1650.45,-0.11487
1650.46,-0.11464
1650.47,-0.11528
1650.48,-0.11487
1650.49,-0.1144
1650.5,-0.1149
1650.51,-0.11423
1650.52,-0.11373
1650.53,-0.11367
1650.54,-0.11376
1650.55,-0.1135
1650.56,-0.11375
1650.57,-0.11328
1650.58,-0.11364
1650.59,-0.11328
1650.6,-0.11206
1650.61,-0.11343
1650.62,-0.11245
1650.63,-0.11363
1650.64,-0.11275
1650.65,-0.11427
1650.66,-0.11443
1650.67,-0.1151
1650.68,-0.11514
1650.69,-0.1146
1650.7,-0.11504
1650.71,-0.11421
1650.72,-0.11424
1650.73,-0.11379
1650.74,-0.11531
1650.75,-0.11515
1650.76,-0.11716
1650.77,-0.11933
1650.78,-0.11929
1650.79,-0.11763
1650.8,-0.12097
1650.81,-0.15343
1650.82,-0.25229
1650.83,-0.46146
1650.84,-0.84656
1650.85,-1.42513
1650.86,-2.15147
1650.87,-2.9435
1650.88,-3.6492
1650.89,-4.24312
1650.9,-4.6172
1650.91,-4.74581
1650.92,-4.65577
1650.93,-4.36115
1650.94,-3.88742
1650.95,-3.2589
1650.96,-2.53154
1650.97,-1.83051
1650.98,-1.20348
1650.99,-0.72121
1651,-0.41642
1651.01,-0.23426
1651.02,-0.1577
1651.03,-0.13125
1651.04,-0.12269
1651.05,-0.11899
1651.06,-0.11819
1651.07,-0.11698
1651.08,-0.11649
1651.09,-0.11615
1651.1,-0.11464
1651.11,-0.11472
1651.12,-0.11509
1651.13,-0.11446
1651.14,-0.11621
1651.15,-0.11472
1651.16,-0.11445
1651.17,-0.11418
1651.18,-0.11475
1651.19,-0.1153
1651.2,-0.11561
1651.21,-0.11569
1651.22,-0.11531
1651.23,-0.11669
1651.24,-0.11598
1651.25,-0.11555
1651.26,-0.11659
1651.27,-0.11574
1651.28,-0.11573
1651.29,-0.11529
1651.3,-0.11517
1651.31,-0.11514
1651.32,-0.11492
1651.33,-0.11497
1651.34,-0.11428
1651.35,-0.11433
1651.36,-0.11479
1651.37,-0.11389
1651.38,-0.11441
1651.39,-0.11411
1651.4,-0.11356
1651.41,-0.11382
1651.42,-0.11404
1651.43,-0.11384
1651.44,-0.11356
1651.45,-0.11387
1651.46,-0.11387
1651.47,-0.11443
1651.48,-0.1144
1651.49,-0.11413
1651.5,-0.11404
1651.51,-0.11353
1651.52,-0.11387
1651.53,-0.11422
1651.54,-0.11391
1651.55,-0.11376
1651.56,-0.1141
1651.57,-0.1127
1651.58,-0.11439
1651.59,-0.11325
1651.6,-0.11308
1651.61,-0.11254
1651.62,-0.11322
1651.63,-0.1125
1651.64,-0.11367
1651.65,-0.11346
1651.66,-0.11395
1651.67,-0.11412
1651.68,-0.11447
1651.69,-0.11418
1651.7,-0.11471
1651.71,-0.11509
1651.72,-0.11489
1651.73,-0.11494
1651.74,-0.11457
1651.75,-0.11511
1651.76,-0.11396
1651.77,-0.11481
1651.78,-0.1143
1651.79,-0.11417
1651.8,-0.1138
1651.81,-0.11332
1651.82,-0.11346
1651.83,-0.11312
1651.84,-0.11296
1651.85,-0.11243
1651.86,-0.1131
1651.87,-0.1127
1651.88,-0.11316
1651.89,-0.11328
1651.9,-0.11304
1651.91,-0.11386
1651.92,-0.11321
1651.93,-0.11331
1651.94,-0.11424
1651.95,-0.11294
1651.96,-0.11384
1651.97,-0.11417
1651.98,-0.11428
1651.99,-0.11567
1652,-0.1149
1652.01,-0.11468
1652.02,-0.1154
1652.03,-0.11512
1652.04,-0.11437
1652.05,-0.1154
1652.06,-0.11451
1652.07,-0.11463
1652.08,-0.11475
1652.09,-0.11573
1652.1,-0.11637
1652.11,-0.11696
1652.12,-0.11693
1652.13,-0.11688
1652.14,-0.11752
1652.15,-0.11679
1652.16,-0.11702
1652.17,-0.11607
1652.18,-0.1162
1652.19,-0.11547
1652.2,-0.11525
1652.21,-0.11516
1652.22,-0.11559
1652.23,-0.11504
1652.24,-0.11541
1652.25,-0.11463
1652.26,-0.1151
1652.27,-0.11503
1652.28,-0.11514
1652.29,-0.11429
1652.3,-0.11439
1652.31,-0.11561
1652.32,-0.11484
1652.33,-0.11567
1652.34,-0.11597
1652.35,-0.11603
1652.36,-0.11603
1652.37,-0.1165
1652.38,-0.11735
1652.39,-0.11696
1652.4,-0.11697
1652.41,-0.11668
1652.42,-0.11774
1652.43,-0.11801
1652.44,-0.1184
1652.45,-0.11915
1652.46,-0.11839
1652.47,-0.11822
1652.48,-0.11764
1652.49,-0.11746
1652.5,-0.11709
1652.51,-0.11599
1652.52,-0.11526
1652.53,-0.11553
1652.54,-0.11584
1652.55,-0.11508
1652.56,-0.11519
1652.57,-0.11499
1652.58,-0.11492
1652.59,-0.1147
1652.6,-0.11466
1652.61,-0.11407
1652.62,-0.11435
1652.63,-0.11321
1652.64,-0.11547
1652.65,-0.11384
1652.66,-0.11454
1652.67,-0.11465
1652.68,-0.1148
1652.69,-0.11452
1652.7,-0.11443
1652.71,-0.11506
1652.72,-0.11494
1652.73,-0.11486
1652.74,-0.1154
1652.75,-0.11603
1652.76,-0.1161
1652.77,-0.11647
1652.78,-0.11653
1652.79,-0.11644
1652.8,-0.1162
1652.81,-0.11578
1652.82,-0.11497
1652.83,-0.11391
1652.84,-0.11393
1652.85,-0.11342
1652.86,-0.11385
1652.87,-0.11278
1652.88,-0.11303
1652.89,-0.1138
1652.9,-0.11315
1652.91,-0.11351
1652.92,-0.113
1652.93,-0.11294
1652.94,-0.11339
1652.95,-0.11333
1652.96,-0.11314
1652.97,-0.11313
1652.98,-0.11326
1652.99,-0.11551
1653,-0.11457
1653.01,-0.11487
1653.02,-0.11461
1653.03,-0.11474
1653.04,-0.11385
1653.05,-0.11363
1653.06,-0.11302
1653.07,-0.11274
1653.08,-0.11191
1653.09,-0.1124
1653.1,-0.11275
1653.11,-0.11214
1653.12,-0.11257
1653.13,-0.11266
1653.14,-0.11268
1653.15,-0.11263
1653.16,-0.11335
1653.17,-0.11273
1653.18,-0.11307
1653.19,-0.11345
1653.2,-0.11258
1653.21,-0.11364
1653.22,-0.11395
1653.23,-0.11342
1653.24,-0.11415
1653.25,-0.11326
1653.26,-0.11423
1653.27,-0.11366
1653.28,-0.11372
1653.29,-0.11396
1653.3,-0.11345
1653.31,-0.11371
1653.32,-0.11515
1653.33,-0.11456
1653.34,-0.11488
1653.35,-0.1148
1653.36,-0.11416
1653.37,-0.11339
1653.38,-0.11419
1653.39,-0.11291
1653.4,-0.11346
1653.41,-0.11362
1653.42,-0.11309
1653.43,-0.1156
1653.44,-0.11404
1653.45,-0.11542
1653.46,-0.11565
1653.47,-0.11563
1653.48,-0.11506
1653.49,-0.11443
1653.5,-0.1145
1653.51,-0.11504
1653.52,-0.11545
1653.53,-0.11666
1653.54,-0.11803
1653.55,-0.11958
1653.56,-0.11854
1653.57,-0.11979
1653.58,-0.14096
1653.59,-0.20657
1653.6,-0.35149
1653.61,-0.6021
1653.62,-1.0581
1653.63,-1.68128
1653.64,-2.37998
1653.65,-3.08616
1653.66,-3.6557
1653.67,-4.05096
1653.68,-4.23826
1653.69,-4.2179
1653.7,-4.00316
1653.71,-3.62114
1653.72,-3.06268
1653.73,-2.44572
1653.74,-1.75309
1653.75,-1.17802
1653.76,-0.71271
1653.77,-0.41597
1653.78,-0.24903
1653.79,-0.16788
1653.8,-0.13574
1653.81,-0.12472
1653.82,-0.12082
1653.83,-0.11941
1653.84,-0.11877
1653.85,-0.11781
1653.86,-0.11716
1653.87,-0.11623
1653.88,-0.11612
1653.89,-0.11588
1653.9,-0.11596
1653.91,-0.11579
1653.92,-0.11593
1653.93,-0.11561
1653.94,-0.11632
1653.95,-0.11566
1653.96,-0.11553
1653.97,-0.11589
1653.98,-0.11566
1653.99,-0.11576
1654,-0.1157
1654.01,-0.11588
1654.02,-0.11617
1654.03,-0.11581
1654.04,-0.1162
1654.05,-0.11626
1654.06,-0.11608
1654.07,-0.11575
1654.08,-0.11595
1654.09,-0.11564
1654.1,-0.11596
1654.11,-0.11591
1654.12,-0.11608
1654.13,-0.11613
1654.14,-0.11534
1654.15,-0.11561
1654.16,-0.11535
1654.17,-0.11507
1654.18,-0.11483
1654.19,-0.11464
1654.2,-0.11495
1654.21,-0.11433
1654.22,-0.11529
1654.23,-0.11471
1654.24,-0.11545
1654.25,-0.11491
1654.26,-0.11534
1654.27,-0.11475
1654.28,-0.11518
1654.29,-0.11516
1654.3,-0.11496
1654.31,-0.1149
1654.32,-0.11452
1654.33,-0.11546
1654.34,-0.11547
1654.35,-0.11487
1654.36,-0.11577
1654.37,-0.11545
1654.38,-0.11513
1654.39,-0.11477
1654.4,-0.11515
1654.41,-0.11457
1654.42,-0.11453
1654.43,-0.11434
1654.44,-0.11444
1654.45,-0.11496
1654.46,-0.11523
1654.47,-0.11528
1654.48,-0.11502
1654.49,-0.11524
1654.5,-0.11524
1654.51,-0.11534
1654.52,-0.11552
1654.53,-0.11578
1654.54,-0.11567
1654.55,-0.11566
1654.56,-0.11623
1654.57,-0.11623
1654.58,-0.11636
1654.59,-0.11609
1654.6,-0.11613
1654.61,-0.11637
1654.62,-0.11527
1654.63,-0.11581
1654.64,-0.11517
1654.65,-0.11507
1654.66,-0.11485
1654.67,-0.11547
1654.68,-0.1158
1654.69,-0.11565
1654.7,-0.11614
1654.71,-0.11502
1654.72,-0.11566
1654.73,-0.11545
1654.74,-0.11556
1654.75,-0.11509
1654.76,-0.11565
1654.77,-0.11552
1654.78,-0.11559
1654.79,-0.11636
1654.8,-0.11606
1654.81,-0.11598
1654.82,-0.11658
1654.83,-0.11633
1654.84,-0.11656
1654.85,-0.11648
1654.86,-0.11642
1654.87,-0.11635
1654.88,-0.11603
1654.89,-0.1168
1654.9,-0.11673
1654.91,-0.11663
1654.92,-0.11693
1654.93,-0.1169
1654.94,-0.11715
1654.95,-0.11693
1654.96,-0.11727
1654.97,-0.11681
1654.98,-0.11777
1654.99,-0.11672
1655,-0.11767
1655.01,-0.11702
1655.02,-0.1176
1655.03,-0.117
1655.04,-0.11679
1655.05,-0.11671
1655.06,-0.11664
1655.07,-0.11642
1655.08,-0.11614
1655.09,-0.11636
1655.1,-0.11614
1655.11,-0.11623
1655.12,-0.11635
1655.13,-0.11637
1655.14,-0.11652
1655.15,-0.11628
1655.16,-0.11619
1655.17,-0.11638
1655.18,-0.11593
1655.19,-0.1158
1655.2,-0.11561
1655.21,-0.11614
1655.22,-0.11646
1655.23,-0.11635
1655.24,-0.11679
1655.25,-0.11706
1655.26,-0.11783
1655.27,-0.11723
1655.28,-0.11736
1655.29,-0.1174
1655.3,-0.1172
1655.31,-0.11667
1655.32,-0.11778
1655.33,-0.11712
1655.34,-0.11797
1655.35,-0.11706
1655.36,-0.11713
1655.37,-0.11708
1655.38,-0.11648
1655.39,-0.11629
1655.4,-0.11641
1655.41,-0.11584
1655.42,-0.11612
1655.43,-0.11517
1655.44,-0.11573
1655.45,-0.11556
1655.46,-0.11587
1655.47,-0.11619
1655.48,-0.11636
1655.49,-0.11606
1655.5,-0.11646
1655.51,-0.11617
1655.52,-0.11571
1655.53,-0.11612
1655.54,-0.11564
1655.55,-0.11609
1655.56,-0.11625
1655.57,-0.11685
1655.58,-0.11697
1655.59,-0.11693
1655.6,-0.11729
1655.61,-0.11777
1655.62,-0.11746
1655.63,-0.11728
1655.64,-0.11735
1655.65,-0.11726
1655.66,-0.11599
1655.67,-0.11743
1655.68,-0.11647
1655.69,-0.11702
1655.7,-0.11678
1655.71,-0.11672
1655.72,-0.11651
1655.73,-0.11593
1655.74,-0.11624
1655.75,-0.11592
1655.76,-0.11633
1655.77,-0.11625
1655.78,-0.11638
1655.79,-0.11657
1655.8,-0.11702
1655.81,-0.11647
1655.82,-0.11718
1655.83,-0.11686
1655.84,-0.11669
1655.85,-0.11729
1655.86,-0.11737
1655.87,-0.11652
1655.88,-0.11683
1655.89,-0.11664
1655.9,-0.1167
1655.91,-0.1167
1655.92,-0.11655
1655.93,-0.11639
1655.94,-0.1162
1655.95,-0.11617
1655.96,-0.11557
1655.97,-0.11553
1655.98,-0.1155
1655.99,-0.1158
1656,-0.11585
1656.01,-0.11578
1656.02,-0.11659
1656.03,-0.11628
1656.04,-0.117
1656.05,-0.11662
1656.06,-0.11661
1656.07,-0.11696
1656.08,-0.11672
1656.09,-0.1166
1656.1,-0.1157
1656.11,-0.11586
1656.12,-0.11662
1656.13,-0.11651
1656.14,-0.11626
1656.15,-0.11639
1656.16,-0.11673
1656.17,-0.11677
1656.18,-0.11656
1656.19,-0.11599
1656.2,-0.11606
1656.21,-0.11558
1656.22,-0.11561
1656.23,-0.11558
1656.24,-0.11558
1656.25,-0.11562
1656.26,-0.11585
1656.27,-0.11608
1656.28,-0.11598
1656.29,-0.11637
1656.3,-0.11586
1656.31,-0.11609
1656.32,-0.11593
1656.33,-0.11532
1656.34,-0.11544
1656.35,-0.1152
1656.36,-0.11602
1656.37,-0.11683
1656.38,-0.11738
1656.39,-0.11819
1656.4,-0.11822
1656.41,-0.11736
1656.42,-0.11926
1656.43,-0.12961
1656.44,-0.17423
1656.45,-0.26922
1656.46,-0.43239
1656.47,-0.66343
1656.48,-0.95288
1656.49,-1.27954
1656.5,-1.60608
1656.51,-1.87796
1656.52,-2.04107
1656.53,-2.08546
1656.54,-1.97363
1656.55,-1.75937
1656.56,-1.4747
1656.57,-1.15692
1656.58,-0.82906
1656.59,-0.56267
1656.6,-0.37978
1656.61,-0.25193
1656.62,-0.17583
1656.63,-0.13921
1656.64,-0.12418
1656.65,-0.11879
1656.66,-0.11675
1656.67,-0.11658
1656.68,-0.11694
1656.69,-0.11703
1656.7,-0.11623
1656.71,-0.11617
1656.72,-0.11591
1656.73,-0.11676
1656.74,-0.11501
1656.75,-0.1157
1656.76,-0.11541
1656.77,-0.11533
1656.78,-0.11581
1656.79,-0.1159
1656.8,-0.11633
1656.81,-0.1159
1656.82,-0.11648
1656.83,-0.1159
1656.84,-0.11632
1656.85,-0.11582
1656.86,-0.11567
1656.87,-0.11581
1656.88,-0.11579
1656.89,-0.11581
1656.9,-0.11577
1656.91,-0.11659
1656.92,-0.11726
1656.93,-0.11652
1656.94,-0.11694
1656.95,-0.11599
1656.96,-0.11685
1656.97,-0.1162
1656.98,-0.11644
1656.99,-0.11628
1657,-0.11633
1657.01,-0.11679
1657.02,-0.11714
1657.03,-0.11704
1657.04,-0.11754
1657.05,-0.11676
1657.06,-0.1171
1657.07,-0.11703
1657.08,-0.1164
1657.09,-0.11635
1657.1,-0.11638
1657.11,-0.11604
1657.12,-0.11664
1657.13,-0.11634
1657.14,-0.11635
1657.15,-0.11671
1657.16,-0.11676
1657.17,-0.11646
1657.18,-0.11638
1657.19,-0.11616
1657.2,-0.11649
1657.21,-0.11606
1657.22,-0.11681
1657.23,-0.11664
1657.24,-0.11724
1657.25,-0.11699
1657.26,-0.11705
1657.27,-0.1171
1657.28,-0.11696
1657.29,-0.11663
1657.3,-0.11664
1657.31,-0.1164
1657.32,-0.11633
1657.33,-0.11589
1657.34,-0.11591
1657.35,-0.11665
1657.36,-0.11637
1657.37,-0.11633
1657.38,-0.11619
1657.39,-0.11618
1657.4,-0.11601
1657.41,-0.11594
1657.42,-0.11609
1657.43,-0.11568
1657.44,-0.11558
1657.45,-0.11634
1657.46,-0.11657
1657.47,-0.11682
1657.48,-0.1171
1657.49,-0.1166
1657.5,-0.11687
1657.51,-0.11696
1657.52,-0.116
1657.53,-0.11602
1657.54,-0.11589
1657.55,-0.11544
1657.56,-0.11536
1657.57,-0.1153
1657.58,-0.11529
1657.59,-0.11551
1657.6,-0.11497
1657.61,-0.11525
1657.62,-0.11499
1657.63,-0.11475
1657.64,-0.11465
1657.65,-0.11405
1657.66,-0.11423
1657.67,-0.11455
1657.68,-0.11439
1657.69,-0.11513
1657.7,-0.11494
1657.71,-0.11504
1657.72,-0.11518
1657.73,-0.11511
1657.74,-0.11495
1657.75,-0.11566
1657.76,-0.11611
1657.77,-0.11604
1657.78,-0.11538
1657.79,-0.1154
1657.8,-0.11569
1657.81,-0.11584
1657.82,-0.11554
1657.83,-0.11568
1657.84,-0.11584
1657.85,-0.11596
1657.86,-0.11625
1657.87,-0.1155
1657.88,-0.1163
1657.89,-0.1164
1657.9,-0.11633
1657.91,-0.11727
1657.92,-0.11621
1657.93,-0.11695
1657.94,-0.11658
1657.95,-0.1162
1657.96,-0.11666
1657.97,-0.11548
1657.98,-0.1155
1657.99,-0.1157
1658,-0.11585
1658.01,-0.11579
1658.02,-0.11625
1658.03,-0.11628
1658.04,-0.11597
1658.05,-0.11637
1658.06,-0.11632
1658.07,-0.11654
1658.08,-0.11675
1658.09,-0.11609
1658.1,-0.11669
1658.11,-0.11629
1658.12,-0.11718
1658.13,-0.1171
1658.14,-0.11755
1658.15,-0.11793
1658.16,-0.11779
1658.17,-0.11845
1658.18,-0.11828
1658.19,-0.11812
1658.2,-0.11832
1658.21,-0.11826
1658.22,-0.1185
1658.23,-0.11948
1658.24,-0.11975
1658.25,-0.1187
1658.26,-0.11884
1658.27,-0.11955
1658.28,-0.1183
1658.29,-0.11882
1658.3,-0.11808
1658.31,-0.11799
1658.32,-0.11789
1658.33,-0.11737
1658.34,-0.11815
1658.35,-0.11755
1658.36,-0.1183
1658.37,-0.11832
1658.38,-0.11863
1658.39,-0.11872
1658.4,-0.11804
1658.41,-0.11872
1658.42,-0.1181
1658.43,-0.11837
1658.44,-0.11777
1658.45,-0.11805
1658.46,-0.11843
1658.47,-0.11916
1658.48,-0.11944
1658.49,-0.11901
1658.5,-0.11949
1658.51,-0.11935
1658.52,-0.11954
1658.53,-0.11935
1658.54,-0.12011
1658.55,-0.11955
1658.56,-0.11939
1658.57,-0.11974
1658.58,-0.11949
1658.59,-0.11991
1658.6,-0.11895
1658.61,-0.11913
1658.62,-0.11847
1658.63,-0.11869
1658.64,-0.11805
1658.65,-0.11787
1658.66,-0.11769
1658.67,-0.11803
1658.68,-0.11749
1658.69,-0.11831
1658.7,-0.11858
1658.71,-0.11809
1658.72,-0.11832
1658.73,-0.11834
1658.74,-0.11838
1658.75,-0.11842
1658.76,-0.11824
1658.77,-0.11854
1658.78,-0.11812
1658.79,-0.11937
1658.8,-0.11868
1658.81,-0.11886
1658.82,-0.11899
1658.83,-0.1189
1658.84,-0.11829
1658.85,-0.11778
1658.86,-0.11804
1658.87,-0.11765
1658.88,-0.11672
1658.89,-0.11694
1658.9,-0.11809
1658.91,-0.11733
1658.92,-0.11795
1658.93,-0.1195
1658.94,-0.11663
1658.95,-0.1188
1658.96,-0.11839
1658.97,-0.11801
1658.98,-0.11775
1658.99,-0.1178
1659,-0.11808
1659.01,-0.11838
1659.02,-0.11849
1659.03,-0.11822
1659.04,-0.1187
1659.05,-0.11783
1659.06,-0.11845
1659.07,-0.11868
1659.08,-0.11728
1659.09,-0.11816
1659.1,-0.11764
1659.11,-0.11782
1659.12,-0.1179
1659.13,-0.11812
1659.14,-0.1187
1659.15,-0.11827
1659.16,-0.11888
1659.17,-0.11788
1659.18,-0.11804
1659.19,-0.118
1659.2,-0.11779
1659.21,-0.1176
1659.22,-0.11803
1659.23,-0.11797
1659.24,-0.11854
1659.25,-0.11965
1659.26,-0.11926
1659.27,-0.11959
1659.28,-0.12085
1659.29,-0.13399
1659.3,-0.1657
1659.31,-0.2216
1659.32,-0.31409
1659.33,-0.44381
1659.34,-0.59501
1659.35,-0.75247
1659.36,-0.89533
1659.37,-0.99972
1659.38,-1.04522
1659.39,-1.02733
1659.4,-0.93931
1659.41,-0.79767
1659.42,-0.63791
1659.43,-0.48479
1659.44,-0.35845
1659.45,-0.26131
1659.46,-0.19241
1659.47,-0.15126
1659.48,-0.13153
1659.49,-0.12379
1659.5,-0.12205
1659.51,-0.12039
1659.52,-0.1204
1659.53,-0.12022
1659.54,-0.12034
1659.55,-0.11992
1659.56,-0.11989
1659.57,-0.11991
1659.58,-0.11983
1659.59,-0.12007
1659.6,-0.12018
1659.61,-0.12091
1659.62,-0.12023
1659.63,-0.11997
1659.64,-0.12123
1659.65,-0.11956
1659.66,-0.11962
1659.67,-0.12019
1659.68,-0.1201
1659.69,-0.12063
1659.7,-0.12061
1659.71,-0.12089
1659.72,-0.12082
1659.73,-0.12089
1659.74,-0.12049
1659.75,-0.12046
1659.76,-0.1207
1659.77,-0.12044
1659.78,-0.12023
1659.79,-0.12033
1659.8,-0.12052
1659.81,-0.12051
1659.82,-0.12019
1659.83,-0.12104
1659.84,-0.12015
1659.85,-0.1206
1659.86,-0.12001
1659.87,-0.12041
1659.88,-0.11998
1659.89,-0.1207
1659.9,-0.12027
1659.91,-0.11983
1659.92,-0.1205
1659.93,-0.12056
1659.94,-0.12114
1659.95,-0.12008
1659.96,-0.1197
1659.97,-0.12036
1659.98,-0.12018
1659.99,-0.11986
1660,-0.11948
1660.01,-0.11979
1660.02,-0.11951
1660.03,-0.12004
1660.04,-0.12028
1660.05,-0.12012
1660.06,-0.12004
1660.07,-0.11991
1660.08,-0.12014
1660.09,-0.11985
1660.1,-0.11983
1660.11,-0.11966
1660.12,-0.11961
1660.13,-0.11995
1660.14,-0.11986
1660.15,-0.12014
1660.16,-0.12001
1660.17,-0.11966
1660.18,-0.11991
1660.19,-0.11951
1660.2,-0.12038
1660.21,-0.11905
1660.22,-0.11943
1660.23,-0.11814
1660.24,-0.12001
1660.25,-0.11933
1660.26,-0.11996
1660.27,-0.11927
1660.28,-0.11947
1660.29,-0.12009
1660.3,-0.11875
1660.31,-0.11947
1660.32,-0.11905
1660.33,-0.11898
1660.34,-0.11956
1660.35,-0.11815
1660.36,-0.11882
1660.37,-0.1204
1660.38,-0.11979
1660.39,-0.11928
1660.4,-0.11955
1660.41,-0.11939
1660.42,-0.11926
1660.43,-0.1196
1660.44,-0.11879
1660.45,-0.11869
1660.46,-0.11979
1660.47,-0.11931
1660.48,-0.1194
1660.49,-0.11975
1660.5,-0.11972
1660.51,-0.11963
1660.52,-0.11904
1660.53,-0.11976
1660.54,-0.11818
1660.55,-0.12017
1660.56,-0.11971
1660.57,-0.11874
1660.58,-0.11882
1660.59,-0.11901
1660.6,-0.11929
1660.61,-0.11977
1660.62,-0.12007
1660.63,-0.11926
1660.64,-0.11958
1660.65,-0.12006
1660.66,-0.11856
1660.67,-0.11921
1660.68,-0.11917
1660.69,-0.11927
1660.7,-0.11887
1660.71,-0.11969
1660.72,-0.11983
1660.73,-0.11983
1660.74,-0.11946
1660.75,-0.1196
1660.76,-0.11924
1660.77,-0.11951
1660.78,-0.11917
1660.79,-0.11928
1660.8,-0.11918
1660.81,-0.11981
1660.82,-0.12016
1660.83,-0.1196
1660.84,-0.12016
1660.85,-0.12018
1660.86,-0.11949
1660.87,-0.11993
1660.88,-0.11976
1660.89,-0.11935
1660.9,-0.11968
1660.91,-0.11937
1660.92,-0.11981
1660.93,-0.12095
1660.94,-0.1196
1660.95,-0.12052
1660.96,-0.12028
1660.97,-0.11993
1660.98,-0.11983
1660.99,-0.11978
1661,-0.11992
1661.01,-0.11949
1661.02,-0.11965
1661.03,-0.11963
1661.04,-0.12021
1661.05,-0.11991
1661.06,-0.12023
1661.07,-0.12032
1661.08,-0.11994
1661.09,-0.12019
1661.1,-0.12025
1661.11,-0.11963
1661.12,-0.11975
1661.13,-0.11958
1661.14,-0.11968
1661.15,-0.12082
1661.16,-0.11987
1661.17,-0.11998
1661.18,-0.12026
1661.19,-0.12004
1661.2,-0.11956
1661.21,-0.12039
1661.22,-0.11884
1661.23,-0.12042
1661.24,-0.11942
1661.25,-0.12017
1661.26,-0.1198
1661.27,-0.12
1661.28,-0.12051
1661.29,-0.1205
1661.3,-0.11927
1661.31,-0.11986
1661.32,-0.11989
1661.33,-0.11941
1661.34,-0.11999
1661.35,-0.11875
1661.36,-0.11945
1661.37,-0.11971
1661.38,-0.11966
1661.39,-0.1206
1661.4,-0.11953
1661.41,-0.11969
1661.42,-0.11992
1661.43,-0.11941
1661.44,-0.11885
1661.45,-0.11937
1661.46,-0.11967
1661.47,-0.11968
1661.48,-0.11963
1661.49,-0.11991
1661.5,-0.12004
1661.51,-0.12012
1661.52,-0.11945
1661.53,-0.12022
1661.54,-0.11942
1661.55,-0.11931
1661.56,-0.1192
1661.57,-0.12022
1661.58,-0.11946
1661.59,-0.11973
1661.6,-0.12046
1661.61,-0.12035
1661.62,-0.11981
1661.63,-0.12035
1661.64,-0.11969
1661.65,-0.12022
1661.66,-0.12019
1661.67,-0.11966
1661.68,-0.11923
1661.69,-0.12002
1661.7,-0.12027
1661.71,-0.11998
1661.72,-0.121
1661.73,-0.11973
1661.74,-0.12088
1661.75,-0.1213
1661.76,-0.11954
1661.77,-0.12035
1661.78,-0.12017
1661.79,-0.11937
1661.8,-0.12036
1661.81,-0.12022
1661.82,-0.11974
1661.83,-0.12019
1661.84,-0.12058
1661.85,-0.12003
1661.86,-0.12072
1661.87,-0.12005
1661.88,-0.1199
1661.89,-0.11961
1661.9,-0.11987
1661.91,-0.11968
1661.92,-0.11987
1661.93,-0.12024
1661.94,-0.12026
1661.95,-0.11994
1661.96,-0.12061
1661.97,-0.12004
1661.98,-0.11982
1661.99,-0.11993
1662,-0.12002
1662.01,-0.11889
1662.02,-0.11946
1662.03,-0.11915
1662.04,-0.12021
1662.05,-0.11991
1662.06,-0.11994
1662.07,-0.11972
1662.08,-0.12026
1662.09,-0.11962
1662.1,-0.11888
1662.11,-0.12024
1662.12,-0.11925
1662.13,-0.11913
1662.14,-0.1192
1662.15,-0.12002
1662.16,-0.12046
1662.17,-0.1204
1662.18,-0.12036
1662.19,-0.12025
1662.2,-0.12264
1662.21,-0.13056
1662.22,-0.15459
1662.23,-0.20542
1662.24,-0.29198
1662.25,-0.40874
1662.26,-0.56354
1662.27,-0.73712
1662.28,-0.89564
1662.29,-1.01844
1662.3,-1.07463
1662.31,-1.05839
1662.32,-0.98522
1662.33,-0.85336
1662.34,-0.70255
1662.35,-0.54993
1662.36,-0.4077
1662.37,-0.29197
1662.38,-0.21243
1662.39,-0.16267
1662.4,-0.13804
1662.41,-0.12619
1662.42,-0.12214
1662.43,-0.12006
1662.44,-0.11972
1662.45,-0.11923
1662.46,-0.11962
1662.47,-0.11892
1662.48,-0.11902
1662.49,-0.11922
1662.5,-0.11993
1662.51,-0.11954
1662.52,-0.11898
1662.53,-0.11922
1662.54,-0.11913
1662.55,-0.11855
1662.56,-0.11889
1662.57,-0.11865
1662.58,-0.11916
1662.59,-0.11893
1662.6,-0.11921
1662.61,-0.11987
1662.62,-0.11955
1662.63,-0.11934
1662.64,-0.11979
1662.65,-0.11904
1662.66,-0.11981
1662.67,-0.11867
1662.68,-0.1191
1662.69,-0.11866
1662.7,-0.11958
1662.71,-0.11903
1662.72,-0.11996
1662.73,-0.12076
1662.74,-0.11932
1662.75,-0.12012
1662.76,-0.12012
1662.77,-0.12021
1662.78,-0.11955
1662.79,-0.1201
1662.8,-0.11965
1662.81,-0.12032
1662.82,-0.11997
1662.83,-0.12099
1662.84,-0.12082
1662.85,-0.12105
1662.86,-0.1207
1662.87,-0.12007
1662.88,-0.12104
1662.89,-0.12105
1662.9,-0.12078
1662.91,-0.12031
1662.92,-0.12082
1662.93,-0.12063
1662.94,-0.12141
1662.95,-0.12153
1662.96,-0.12126
1662.97,-0.12126
1662.98,-0.1221
1662.99,-0.12138
1663,-0.12066
1663.01,-0.12188
1663.02,-0.12154
1663.03,-0.12155
1663.04,-0.12133
1663.05,-0.12209
1663.06,-0.12165
1663.07,-0.12178
1663.08,-0.1219
1663.09,-0.12184
1663.1,-0.1213
1663.11,-0.12139
1663.12,-0.1218
1663.13,-0.12166
1663.14,-0.12176
1663.15,-0.12193
1663.16,-0.12249
1663.17,-0.12189
1663.18,-0.12218
1663.19,-0.12203
1663.2,-0.12217
1663.21,-0.12179
1663.22,-0.12178
1663.23,-0.12227
1663.24,-0.12219
1663.25,-0.12168
1663.26,-0.12221
1663.27,-0.12185
1663.28,-0.1226
1663.29,-0.12249
1663.3,-0.12211
1663.31,-0.12202
1663.32,-0.12221
1663.33,-0.12214
1663.34,-0.12216
1663.35,-0.12122
1663.36,-0.12139
1663.37,-0.12224
1663.38,-0.12148
1663.39,-0.12189
1663.4,-0.12197
1663.41,-0.12196
1663.42,-0.12193
1663.43,-0.12108
1663.44,-0.12133
1663.45,-0.12085
1663.46,-0.12135
1663.47,-0.12115
1663.48,-0.12105
1663.49,-0.12143
1663.5,-0.1214
1663.51,-0.12123
1663.52,-0.1213
1663.53,-0.12113
1663.54,-0.12153
1663.55,-0.12082
1663.56,-0.12082
1663.57,-0.12091
1663.58,-0.12066
1663.59,-0.12082
1663.6,-0.12064
1663.61,-0.12111
1663.62,-0.12095
1663.63,-0.1211
1663.64,-0.12088
1663.65,-0.12023
1663.66,-0.12077
1663.67,-0.12047
1663.68,-0.11983
1663.69,-0.11997
1663.7,-0.11977
1663.71,-0.12018
1663.72,-0.12114
1663.73,-0.11947
1663.74,-0.12062
1663.75,-0.12103
1663.76,-0.11967
1663.77,-0.12023
1663.78,-0.11968
1663.79,-0.11976
1663.8,-0.1196
1663.81,-0.11966
1663.82,-0.12014
1663.83,-0.12025
1663.84,-0.11955
1663.85,-0.12041
1663.86,-0.12012
1663.87,-0.11975
1663.88,-0.11973
1663.89,-0.12047
1663.9,-0.1195
1663.91,-0.11921
1663.92,-0.11993
1663.93,-0.11999
1663.94,-0.11991
1663.95,-0.12013
1663.96,-0.1202
1663.97,-0.12039
1663.98,-0.12036
1663.99,-0.12029
1664,-0.11966
1664.01,-0.12051
1664.02,-0.11985
1664.03,-0.12033
1664.04,-0.12012
1664.05,-0.12055
1664.06,-0.12085
1664.07,-0.12095
1664.08,-0.12107
1664.09,-0.12089
1664.1,-0.12098
1664.11,-0.12088
1664.12,-0.12106
1664.13,-0.12116
1664.14,-0.12058
1664.15,-0.1209
1664.16,-0.121
1664.17,-0.12146
1664.18,-0.1221
1664.19,-0.12163
1664.2,-0.12166
1664.21,-0.12152
1664.22,-0.12173
1664.23,-0.12138
1664.24,-0.12178
1664.25,-0.12158
1664.26,-0.12112
1664.27,-0.12173
1664.28,-0.12198
1664.29,-0.12229
1664.3,-0.12238
1664.31,-0.12228
1664.32,-0.12248
1664.33,-0.1227
1664.34,-0.12269
1664.35,-0.12246
1664.36,-0.12236
1664.37,-0.12214
1664.38,-0.12273
1664.39,-0.12272
1664.4,-0.12287
1664.41,-0.12272
1664.42,-0.12251
1664.43,-0.12286
1664.44,-0.12316
1664.45,-0.12248
1664.46,-0.12296
1664.47,-0.12242
1664.48,-0.12222
1664.49,-0.1228
1664.5,-0.12315
1664.51,-0.12341
1664.52,-0.12274
1664.53,-0.12323
1664.54,-0.12273
1664.55,-0.12259
1664.56,-0.12336
1664.57,-0.12286
1664.58,-0.12238
1664.59,-0.12257
1664.6,-0.12248
1664.61,-0.12296
1664.62,-0.1232
1664.63,-0.12286
1664.64,-0.12306
1664.65,-0.12253
1664.66,-0.1231
1664.67,-0.12225
1664.68,-0.12257
1664.69,-0.123
1664.7,-0.12242
1664.71,-0.12229
1664.72,-0.1224
1664.73,-0.12267
1664.74,-0.12313
1664.75,-0.12274
1664.76,-0.12245
1664.77,-0.12228
1664.78,-0.12259
1664.79,-0.12209
1664.8,-0.12167
1664.81,-0.12133
1664.82,-0.12206
1664.83,-0.12191
1664.84,-0.12178
1664.85,-0.12213
1664.86,-0.12118
1664.87,-0.12191
1664.88,-0.12133
1664.89,-0.12143
1664.9,-0.12129
1664.91,-0.12059
1664.92,-0.12078
1664.93,-0.12069
1664.94,-0.12128
1664.95,-0.12097
1664.96,-0.12081
1664.97,-0.12071
1664.98,-0.1208
1664.99,-0.12118
1665,-0.1207
1665.01,-0.12004
1665.02,-0.12021
1665.03,-0.12013
1665.04,-0.11984
1665.05,-0.12024
1665.06,-0.12047
1665.07,-0.12023
1665.08,-0.12042
1665.09,-0.12028
1665.1,-0.12018
1665.11,-0.11995
1665.12,-0.11986
1665.13,-0.11993
1665.14,-0.11947
1665.15,-0.11897
1665.16,-0.1194
1665.17,-0.11986
1665.18,-0.11978
1665.19,-0.11944
1665.2,-0.11961
1665.21,-0.11975
1665.22,-0.11988
1665.23,-0.12047
1665.24,-0.11988
1665.25,-0.12004
1665.26,-0.11895
1665.27,-0.12015
1665.28,-0.11997
1665.29,-0.1204
1665.3,-0.11989
1665.31,-0.12014
1665.32,-0.12034
1665.33,-0.11993
1665.34,-0.12039
1665.35,-0.12001
1665.36,-0.12081
1665.37,-0.12029
1665.38,-0.12018
1665.39,-0.12088
1665.4,-0.12085
1665.41,-0.12109
1665.42,-0.12087
1665.43,-0.12117
1665.44,-0.12064
1665.45,-0.12134
1665.46,-0.12075
1665.47,-0.1206
1665.48,-0.12087
1665.49,-0.12042
1665.5,-0.12119
1665.51,-0.12105
1665.52,-0.12122
1665.53,-0.1208
1665.54,-0.12166
1665.55,-0.12117
1665.56,-0.12097
1665.57,-0.12067
1665.58,-0.12097
1665.59,-0.12058
1665.6,-0.12074
1665.61,-0.12185
1665.62,-0.12123
1665.63,-0.12147
1665.64,-0.12185
1665.65,-0.12146
1665.66,-0.12171
1665.67,-0.12198
1665.68,-0.12104
1665.69,-0.12126
1665.7,-0.12181
1665.71,-0.12136
1665.72,-0.12199
1665.73,-0.12068
1665.74,-0.12219
1665.75,-0.12203
1665.76,-0.12203
1665.77,-0.12172
1665.78,-0.12137
1665.79,-0.12174
1665.8,-0.12178
1665.81,-0.121
1665.82,-0.12091
1665.83,-0.12128
1665.84,-0.12179
1665.85,-0.12148
1665.86,-0.12202
1665.87,-0.12214
1665.88,-0.12197
1665.89,-0.12149
1665.9,-0.12157
1665.91,-0.12178
1665.92,-0.12178
1665.93,-0.12158
1665.94,-0.12173
1665.95,-0.12136
1665.96,-0.12204
1665.97,-0.12232
1665.98,-0.1218
1665.99,-0.12211
1666,-0.12171
1666.01,-0.12106
1666.02,-0.12145
1666.03,-0.12077
1666.04,-0.12047
1666.05,-0.12054
1666.06,-0.12085
1666.07,-0.12032
1666.08,-0.12109
1666.09,-0.1204
1666.1,-0.12116
1666.11,-0.12049
1666.12,-0.12064
1666.13,-0.11968
1666.14,-0.11991
1666.15,-0.11995
1666.16,-0.11949
1666.17,-0.11999
1666.18,-0.11983
1666.19,-0.12014
1666.2,-0.12008
1666.21,-0.12024
1666.22,-0.11999
1666.23,-0.1198
1666.24,-0.12022
1666.25,-0.11995
1666.26,-0.11922
1666.27,-0.11993
1666.28,-0.12012
1666.29,-0.11982
1666.3,-0.11976
1666.31,-0.12002
1666.32,-0.11984
1666.33,-0.11976
1666.34,-0.11977
1666.35,-0.11944
1666.36,-0.11981
1666.37,-0.11931
1666.38,-0.11932
1666.39,-0.1192
1666.4,-0.11945
1666.41,-0.11987
1666.42,-0.12045
1666.43,-0.12003
1666.44,-0.11974
1666.45,-0.12022
1666.46,-0.12038
1666.47,-0.12009
1666.48,-0.12043
1666.49,-0.11958
1666.5,-0.11991
1666.51,-0.11957
1666.52,-0.11971
1666.53,-0.1194
1666.54,-0.11965
1666.55,-0.11955
1666.56,-0.11896
1666.57,-0.11938
1666.58,-0.11879
1666.59,-0.11927
1666.6,-0.11879
1666.61,-0.11924
1666.62,-0.11845
1666.63,-0.11969
1666.64,-0.11915
1666.65,-0.11952
1666.66,-0.11925
1666.67,-0.11886
1666.68,-0.11947
1666.69,-0.11891
1666.7,-0.11889
1666.71,-0.1194
1666.72,-0.11937
1666.73,-0.11962
1666.74,-0.11935
1666.75,-0.12016
1666.76,-0.12066
1666.77,-0.1198
1666.78,-0.12047
1666.79,-0.11981
1666.8,-0.1196
1666.81,-0.11965
1666.82,-0.11986
1666.83,-0.1203
1666.84,-0.1203
1666.85,-0.12091
1666.86,-0.12115
1666.87,-0.12084
1666.88,-0.12116
1666.89,-0.12121
1666.9,-0.12184
1666.91,-0.11996
1666.92,-0.12076
1666.93,-0.11989
1666.94,-0.12016
1666.95,-0.1204
1666.96,-0.11984
1666.97,-0.12019
1666.98,-0.12018
1666.99,-0.12011
1667,-0.11965
1667.01,-0.11988
1667.02,-0.11956
1667.03,-0.11929
1667.04,-0.11926
1667.05,-0.11936
1667.06,-0.11925
1667.07,-0.12058
1667.08,-0.1203
1667.09,-0.12024
1667.1,-0.12021
1667.11,-0.12036
1667.12,-0.12003
1667.13,-0.12067
1667.14,-0.12072
1667.15,-0.12006
1667.16,-0.12074
1667.17,-0.12045
1667.18,-0.12099
1667.19,-0.12119
1667.2,-0.12196
1667.21,-0.12162
1667.22,-0.12202
1667.23,-0.12045
1667.24,-0.12209
1667.25,-0.12161
1667.26,-0.12071
1667.27,-0.1208
1667.28,-0.12075
1667.29,-0.12029
1667.3,-0.1206
1667.31,-0.12042
1667.32,-0.12048
1667.33,-0.12071
1667.34,-0.11962
1667.35,-0.12026
1667.36,-0.11998
1667.37,-0.11947
1667.38,-0.1199
1667.39,-0.11921
1667.4,-0.12044
1667.41,-0.12008
1667.42,-0.12079
1667.43,-0.11964
1667.44,-0.12002
1667.45,-0.11991
1667.46,-0.12025
1667.47,-0.12008
1667.48,-0.11986
1667.49,-0.12024
1667.5,-0.12051
1667.51,-0.12109
1667.52,-0.1211
1667.53,-0.1209
1667.54,-0.12166
1667.55,-0.12183
1667.56,-0.12163
1667.57,-0.12139
1667.58,-0.12101
1667.59,-0.12107
1667.6,-0.12017
1667.61,-0.12045
1667.62,-0.11984
1667.63,-0.12073
1667.64,-0.12027
1667.65,-0.12033
1667.66,-0.12043
1667.67,-0.12031
1667.68,-0.1202
1667.69,-0.11967
1667.7,-0.12038
1667.71,-0.11983
1667.72,-0.11974
1667.73,-0.12025
1667.74,-0.12023
1667.75,-0.12079
1667.76,-0.12154
1667.77,-0.12106
1667.78,-0.1219
1667.79,-0.121
1667.8,-0.12122
1667.81,-0.12164
1667.82,-0.12083
1667.83,-0.12112
1667.84,-0.1203
1667.85,-0.12049
1667.86,-0.12223
1667.87,-0.12073
1667.88,-0.1209
1667.89,-0.12054
1667.9,-0.12061
1667.91,-0.12073
1667.92,-0.11997
1667.93,-0.12024
1667.94,-0.11987
1667.95,-0.12031
1667.96,-0.12031
1667.97,-0.12024
1667.98,-0.12054
1667.99,-0.12083
1668,-0.12073
1668.01,-0.12054
1668.02,-0.121
1668.03,-0.12
1668.04,-0.12016
1668.05,-0.1201
1668.06,-0.11993
1668.07,-0.1204
1668.08,-0.12039
1668.09,-0.12054
1668.1,-0.12046
1668.11,-0.12029
1668.12,-0.12005
1668.13,-0.12098
1668.14,-0.11956
1668.15,-0.11983
1668.16,-0.11931
1668.17,-0.11978
1668.18,-0.11933
1668.19,-0.11974
1668.2,-0.11952
1668.21,-0.11926
1668.22,-0.12054
1668.23,-0.11906
1668.24,-0.11931
1668.25,-0.11918
1668.26,-0.11846
1668.27,-0.11855
1668.28,-0.11872
1668.29,-0.11878
1668.3,-0.11894
1668.31,-0.11932
1668.32,-0.11826
1668.33,-0.11957
1668.34,-0.11919
1668.35,-0.11911
1668.36,-0.1192
1668.37,-0.11918
1668.38,-0.11878
1668.39,-0.11859
1668.4,-0.11859
1668.41,-0.11893
1668.42,-0.11901
1668.43,-0.11995
1668.44,-0.11965
1668.45,-0.11968
1668.46,-0.1194
1668.47,-0.11935
1668.48,-0.11989
1668.49,-0.11957
1668.5,-0.12009
1668.51,-0.1201
1668.52,-0.12026
1668.53,-0.12045
1668.54,-0.11961
1668.55,-0.1204
1668.56,-0.12016
1668.57,-0.1195
1668.58,-0.11957
1668.59,-0.11982
1668.6,-0.11913
1668.61,-0.11901
1668.62,-0.11906
1668.63,-0.11924
1668.64,-0.11958
1668.65,-0.11899
1668.66,-0.11922
1668.67,-0.11937
1668.68,-0.11892
1668.69,-0.11883
1668.7,-0.11846
1668.71,-0.11885
1668.72,-0.11909
1668.73,-0.1188
1668.74,-0.11887
1668.75,-0.12033
1668.76,-0.11932
1668.77,-0.11962
1668.78,-0.11936
1668.79,-0.12025
1668.8,-0.11953
1668.81,-0.11942
1668.82,-0.1196
1668.83,-0.11892
1668.84,-0.11915
1668.85,-0.11923
1668.86,-0.11977
1668.87,-0.11988
1668.88,-0.1191
1668.89,-0.12069
1668.9,-0.12013
1668.91,-0.11948
1668.92,-0.11964
1668.93,-0.11956
1668.94,-0.12031
1668.95,-0.11921
1668.96,-0.11991
1668.97,-0.12045
1668.98,-0.12034
1668.99,-0.12078
1669,-0.1209
1669.01,-0.12118
1669.02,-0.12058
1669.03,-0.12129
1669.04,-0.12149
1669.05,-0.12143
1669.06,-0.12192
1669.07,-0.12154
1669.08,-0.12259
1669.09,-0.12256
1669.1,-0.12232
1669.11,-0.12252
1669.12,-0.12248
1669.13,-0.12195
1669.14,-0.12185
1669.15,-0.12128
1669.16,-0.12113
1669.17,-0.12098
1669.18,-0.12092
1669.19,-0.1209
1669.2,-0.12118
1669.21,-0.12127
1669.22,-0.12118
1669.23,-0.12064
1669.24,-0.12191
1669.25,-0.12077
1669.26,-0.12111
1669.27,-0.12072
1669.28,-0.1204
1669.29,-0.12083
1669.3,-0.12152
1669.31,-0.12088
1669.32,-0.12177
1669.33,-0.12173
1669.34,-0.12139
1669.35,-0.12197
1669.36,-0.12198
1669.37,-0.12097
1669.38,-0.12161
1669.39,-0.1215
1669.4,-0.1213
1669.41,-0.12089
1669.42,-0.12133
1669.43,-0.1212
1669.44,-0.12087
1669.45,-0.12085
1669.46,-0.12076
1669.47,-0.12106
1669.48,-0.12154
1669.49,-0.11998
1669.5,-0.12049
1669.51,-0.12057
1669.52,-0.12134
1669.53,-0.12104
1669.54,-0.12202
1669.55,-0.1228
1669.56,-0.1222
1669.57,-0.12259
1669.58,-0.12227
1669.59,-0.12245
1669.6,-0.12285
1669.61,-0.12044
1669.62,-0.12227
1669.63,-0.12054
1669.64,-0.12039
1669.65,-0.1201
1669.66,-0.12021
1669.67,-0.11966
1669.68,-0.11969
1669.69,-0.11922
1669.7,-0.11906
1669.71,-0.11872
1669.72,-0.11835
1669.73,-0.11818
1669.74,-0.1184
1669.75,-0.11809
1669.76,-0.11889
1669.77,-0.11886
1669.78,-0.11866
1669.79,-0.1184
1669.8,-0.11857
1669.81,-0.11887
1669.82,-0.11869
1669.83,-0.11796
1669.84,-0.11851
1669.85,-0.11909
1669.86,-0.11881
1669.87,-0.11902
1669.88,-0.11946
1669.89,-0.11944
1669.9,-0.11902
1669.91,-0.1193
1669.92,-0.11905
1669.93,-0.11905
1669.94,-0.11893
1669.95,-0.1192
1669.96,-0.11932
1669.97,-0.12007
1669.98,-0.12171
1669.99,-0.12038
1670,-0.12033
1670.01,-0.1212
1670.02,-0.12127
1670.03,-0.12093
1670.04,-0.12006
1670.05,-0.1198
1670.06,-0.11915
1670.07,-0.11888
1670.08,-0.11877
1670.09,-0.11863
1670.1,-0.11874
1670.11,-0.11861
1670.12,-0.11806
1670.13,-0.11837
1670.14,-0.11807
1670.15,-0.11826
1670.16,-0.11834
1670.17,-0.11799
1670.18,-0.11816
1670.19,-0.11825
1670.2,-0.11871
1670.21,-0.11923
1670.22,-0.11925
1670.23,-0.11933
1670.24,-0.11985
1670.25,-0.12003
1670.26,-0.12026
1670.27,-0.12067
1670.28,-0.12034
1670.29,-0.12181
1670.3,-0.12095
1670.31,-0.12223
1670.32,-0.1228
1670.33,-0.12279
1670.34,-0.12311
1670.35,-0.12358
1670.36,-0.12327
1670.37,-0.12266
1670.38,-0.12205
1670.39,-0.1215
1670.4,-0.12086
1670.41,-0.12065
1670.42,-0.1202
1670.43,-0.1206
1670.44,-0.11985
1670.45,-0.1199
1670.46,-0.12005
1670.47,-0.12011
1670.48,-0.11936
1670.49,-0.11994
1670.5,-0.11942
1670.51,-0.11963
1670.52,-0.11961
1670.53,-0.11952
1670.54,-0.12029
1670.55,-0.11993
1670.56,-0.12069
1670.57,-0.11996
1670.58,-0.12042
1670.59,-0.12
1670.6,-0.1209
1670.61,-0.1205
1670.62,-0.12073
1670.63,-0.12152
1670.64,-0.12217
1670.65,-0.12198
1670.66,-0.12333
1670.67,-0.12252
1670.68,-0.1228
1670.69,-0.1222
1670.7,-0.12219
1670.71,-0.12134
1670.72,-0.12085
1670.73,-0.12002
1670.74,-0.11993
1670.75,-0.1194
1670.76,-0.11951
1670.77,-0.1196
1670.78,-0.11923
1670.79,-0.1192
1670.8,-0.11937
1670.81,-0.11922
1670.82,-0.11906
1670.83,-0.1186
1670.84,-0.11882
1670.85,-0.11908
1670.86,-0.11883
1670.87,-0.11963
1670.88,-0.12015
1670.89,-0.12072
1670.9,-0.12054
1670.91,-0.12091
1670.92,-0.12105
1670.93,-0.12105
1670.94,-0.12085
1670.95,-0.12013
1670.96,-0.11996
1670.97,-0.11957
1670.98,-0.11914
1670.99,-0.11955
1671,-0.11948
1671.01,-0.11874
1671.02,-0.11894
1671.03,-0.11824
1671.04,-0.11831
1671.05,-0.11805
1671.06,-0.11815
1671.07,-0.11823
1671.08,-0.11789
1671.09,-0.11808
1671.1,-0.11844
1671.11,-0.11872
1671.12,-0.11903
1671.13,-0.1184
1671.14,-0.11874
1671.15,-0.11847
1671.16,-0.1182
1671.17,-0.11839
1671.18,-0.11784
1671.19,-0.11765
1671.2,-0.11827
1671.21,-0.12526
1671.22,-0.14301
1671.23,-0.18048
1671.24,-0.23934
1671.25,-0.33051
1671.26,-0.45151
1671.27,-0.57934
1671.28,-0.71028
1671.29,-0.82076
1671.3,-0.89031
1671.31,-0.90455
1671.32,-0.85552
1671.33,-0.75906
1671.34,-0.63349
1671.35,-0.49722
1671.36,-0.37556
1671.37,-0.2801
1671.38,-0.21233
1671.39,-0.1623
1671.4,-0.13499
1671.41,-0.12313
1671.42,-0.11776
1671.43,-0.11697
1671.44,-0.1168
1671.45,-0.11672
1671.46,-0.11662
1671.47,-0.11609
1671.48,-0.11669
1671.49,-0.11592
1671.5,-0.11675
1671.51,-0.11572
1671.52,-0.11604
1671.53,-0.1163
1671.54,-0.11651
1671.55,-0.11662
1671.56,-0.1169
1671.57,-0.11687
1671.58,-0.11743
1671.59,-0.11767
1671.6,-0.11711
1671.61,-0.11791
1671.62,-0.11768
1671.63,-0.11787
1671.64,-0.1186
1671.65,-0.11818
1671.66,-0.11872
1671.67,-0.1188
1671.68,-0.11905
1671.69,-0.11835
1671.7,-0.11873
1671.71,-0.11831
1671.72,-0.11768
1671.73,-0.11826
1671.74,-0.11707
1671.75,-0.11748
1671.76,-0.11754
1671.77,-0.11749
1671.78,-0.11778
1671.79,-0.11731
1671.8,-0.11712
1671.81,-0.11724
1671.82,-0.11722
1671.83,-0.11676
1671.84,-0.11686
1671.85,-0.11707
1671.86,-0.11622
1671.87,-0.11748
1671.88,-0.11712
1671.89,-0.1179
1671.9,-0.11728
1671.91,-0.11735
1671.92,-0.11759
1671.93,-0.11806
1671.94,-0.11721
1671.95,-0.1176
1671.96,-0.11769
1671.97,-0.11735
1671.98,-0.11711
1671.99,-0.11745
1672,-0.1179
1672.01,-0.11779
1672.02,-0.11724
1672.03,-0.11692
1672.04,-0.11773
1672.05,-0.11653
1672.06,-0.11683
1672.07,-0.11651
1672.08,-0.11667
1672.09,-0.11675
1672.1,-0.11686
1672.11,-0.11732
1672.12,-0.11712
1672.13,-0.11735
1672.14,-0.11717
1672.15,-0.11754
1672.16,-0.11785
1672.17,-0.11739
1672.18,-0.11814
1672.19,-0.11845
1672.2,-0.11872
1672.21,-0.11953
1672.22,-0.11912
1672.23,-0.12009
1672.24,-0.11953
1672.25,-0.11983
1672.26,-0.11888
1672.27,-0.11887
1672.28,-0.1182
1672.29,-0.11762
1672.3,-0.11703
1672.31,-0.11718
1672.32,-0.11713
1672.33,-0.11668
1672.34,-0.11644
1672.35,-0.11668
1672.36,-0.11654
1672.37,-0.11614
1672.38,-0.11537
1672.39,-0.11589
1672.4,-0.11558
1672.41,-0.1157
1672.42,-0.11558
1672.43,-0.11586
1672.44,-0.11578
1672.45,-0.11624
1672.46,-0.11674
1672.47,-0.11686
1672.48,-0.11618
1672.49,-0.1164
1672.5,-0.11702
1672.51,-0.11665
1672.52,-0.11658
1672.53,-0.1165
1672.54,-0.11661
1672.55,-0.11715
1672.56,-0.11683
1672.57,-0.11678
1672.58,-0.11619
1672.59,-0.11676
1672.6,-0.11633
1672.61,-0.11608
1672.62,-0.11599
1672.63,-0.11596
1672.64,-0.11612
1672.65,-0.11651
1672.66,-0.11724
1672.67,-0.11783
1672.68,-0.11823
1672.69,-0.11853
1672.7,-0.12026
1672.71,-0.11948
1672.72,-0.12046
1672.73,-0.12016
1672.74,-0.12021
1672.75,-0.11969
1672.76,-0.11872
1672.77,-0.11932
1672.78,-0.11845
1672.79,-0.11762
1672.8,-0.11722
1672.81,-0.11687
1672.82,-0.11628
1672.83,-0.11554
1672.84,-0.11581
1672.85,-0.11535
1672.86,-0.11479
1672.87,-0.11547
1672.88,-0.11558
1672.89,-0.11531
1672.9,-0.11519
1672.91,-0.11564
1672.92,-0.11556
1672.93,-0.11566
1672.94,-0.11513
1672.95,-0.11557
1672.96,-0.11547
1672.97,-0.11558
1672.98,-0.11554
1672.99,-0.11671
1673,-0.1171
1673.01,-0.11702
1673.02,-0.11732
1673.03,-0.11712
1673.04,-0.11718
1673.05,-0.1172
1673.06,-0.11716
1673.07,-0.11702
1673.08,-0.11669
1673.09,-0.11762
1673.1,-0.11754
1673.11,-0.11853
1673.12,-0.11881
1673.13,-0.12005
1673.14,-0.12091
1673.15,-0.12072
1673.16,-0.12025
1673.17,-0.12016
1673.18,-0.11975
1673.19,-0.11895
1673.2,-0.118
1673.21,-0.11722
1673.22,-0.11719
1673.23,-0.11651
1673.24,-0.11527
1673.25,-0.11592
1673.26,-0.115
1673.27,-0.11497
1673.28,-0.11473
1673.29,-0.11443
1673.3,-0.11443
1673.31,-0.11425
1673.32,-0.11455
1673.33,-0.1141
1673.34,-0.11494
1673.35,-0.11497
1673.36,-0.11527
1673.37,-0.11486
1673.38,-0.11532
1673.39,-0.11542
1673.4,-0.11534
1673.41,-0.1157
1673.42,-0.11611
1673.43,-0.11675
1673.44,-0.11772
1673.45,-0.11832
1673.46,-0.11909
1673.47,-0.1194
1673.48,-0.11968
1673.49,-0.12005
1673.5,-0.11995
1673.51,-0.12002
1673.52,-0.11876
1673.53,-0.11909
1673.54,-0.11795
1673.55,-0.11681
1673.56,-0.11614
1673.57,-0.11579
1673.58,-0.11513
1673.59,-0.11465
1673.6,-0.11389
1673.61,-0.11392
1673.62,-0.11402
1673.63,-0.11355
1673.64,-0.11402
1673.65,-0.11355
1673.66,-0.11396
1673.67,-0.11415
1673.68,-0.11423
1673.69,-0.11429
1673.7,-0.11388
1673.71,-0.11462
1673.72,-0.11416
1673.73,-0.11463
1673.74,-0.11469
1673.75,-0.11434
1673.76,-0.11582
1673.77,-0.11611
1673.78,-0.11689
1673.79,-0.11717
1673.8,-0.11846
1673.81,-0.11902
1673.82,-0.11903
1673.83,-0.11925
1673.84,-0.11901
1673.85,-0.11837
1673.86,-0.11763
1673.87,-0.11675
1673.88,-0.11658
1673.89,-0.1161
1673.9,-0.11611
1673.91,-0.11543
1673.92,-0.11457
1673.93,-0.11511
1673.94,-0.11475
1673.95,-0.11452
1673.96,-0.11476
1673.97,-0.11436
1673.98,-0.11454
1673.99,-0.11477
1674,-0.11532
1674.01,-0.115
1674.02,-0.11645
1674.03,-0.11691
1674.04,-0.1172
1674.05,-0.11815
1674.06,-0.11839
1674.07,-0.11887
1674.08,-0.11885
1674.09,-0.11905
1674.1,-0.11867
1674.11,-0.11779
1674.12,-0.11794
1674.13,-0.11748
1674.14,-0.11703
1674.15,-0.11638
1674.16,-0.11569
1674.17,-0.11638
1674.18,-0.11533
1674.19,-0.1151
1674.2,-0.11543
1674.21,-0.11534
1674.22,-0.11477
1674.23,-0.11556
1674.24,-0.11637
1674.25,-0.11546
1674.26,-0.11661
1674.27,-0.1172
1674.28,-0.11773
1674.29,-0.11818
1674.3,-0.11797
1674.31,-0.11694
1674.32,-0.11628
1674.33,-0.12566
1674.34,-0.1542
1674.35,-0.21935
1674.36,-0.34191
1674.37,-0.52919
1674.38,-0.75586
1674.39,-1.03276
1674.4,-1.30027
1674.41,-1.52536
1674.42,-1.67363
1674.43,-1.72595
1674.44,-1.67324
1674.45,-1.5231
1674.46,-1.29676
1674.47,-1.02764
1674.48,-0.767
1674.49,-0.5395
1674.5,-0.3684
1674.51,-0.24726
1674.52,-0.17811
1674.53,-0.13902
1674.54,-0.12358
1674.55,-0.11754
1674.56,-0.11507
1674.57,-0.11452
1674.58,-0.11463
1674.59,-0.11477
1674.6,-0.11447
1674.61,-0.11348
1674.62,-0.11373
1674.63,-0.11335
1674.64,-0.11239
1674.65,-0.11273
1674.66,-0.11262
1674.67,-0.11274
1674.68,-0.11329
1674.69,-0.11304
1674.7,-0.11323
1674.71,-0.11364
1674.72,-0.11335
1674.73,-0.11355
1674.74,-0.11287
1674.75,-0.11422
1674.76,-0.11443
1674.77,-0.11381
1674.78,-0.11468
1674.79,-0.11503
1674.8,-0.11531
1674.81,-0.11539
1674.82,-0.11552
1674.83,-0.1157
1674.84,-0.11525
1674.85,-0.11514
1674.86,-0.11475
1674.87,-0.11431
1674.88,-0.11456
1674.89,-0.11418
1674.9,-0.1144
1674.91,-0.11419
1674.92,-0.11438
1674.93,-0.11359
1674.94,-0.11398
1674.95,-0.11435
1674.96,-0.11343
1674.97,-0.1133
1674.98,-0.11303
1674.99,-0.11345
1675,-0.11371
1675.01,-0.1138
1675.02,-0.11352
1675.03,-0.11395
1675.04,-0.1137
1675.05,-0.11448
1675.06,-0.11428
1675.07,-0.11392
1675.08,-0.11392
1675.09,-0.11417
1675.1,-0.11412
1675.11,-0.11435
1675.12,-0.11501
1675.13,-0.11461
1675.14,-0.11474
1675.15,-0.11428
1675.16,-0.11437
1675.17,-0.11422
1675.18,-0.11349
1675.19,-0.11363
1675.2,-0.11357
1675.21,-0.11387
1675.22,-0.11363
1675.23,-0.11366
1675.24,-0.11442
1675.25,-0.11365
1675.26,-0.11402
1675.27,-0.11417
1675.28,-0.11429
1675.29,-0.11415
1675.3,-0.11431
1675.31,-0.1148
1675.32,-0.11422
1675.33,-0.11548
1675.34,-0.11588
1675.35,-0.1159
1675.36,-0.11652
1675.37,-0.11752
1675.38,-0.11742
1675.39,-0.11772
1675.4,-0.11735
1675.41,-0.11707
1675.42,-0.11645
1675.43,-0.11542
1675.44,-0.11568
1675.45,-0.11507
1675.46,-0.11516
1675.47,-0.11471
1675.48,-0.11432
1675.49,-0.11416
1675.5,-0.11324
1675.51,-0.11371
1675.52,-0.11287
1675.53,-0.11279
1675.54,-0.11278
1675.55,-0.11235
1675.56,-0.11281
1675.57,-0.11261
1675.58,-0.1133
1675.59,-0.11259
1675.6,-0.11257
1675.61,-0.11301
1675.62,-0.11241
1675.63,-0.11314
1675.64,-0.11264
1675.65,-0.1129
1675.66,-0.11272
1675.67,-0.11326
1675.68,-0.11398
1675.69,-0.11302
1675.7,-0.11368
1675.71,-0.11213
1675.72,-0.1138
1675.73,-0.11268
1675.74,-0.11211
1675.75,-0.11218
1675.76,-0.112
1675.77,-0.11246
1675.78,-0.1122
1675.79,-0.11159
1675.8,-0.11266
1675.81,-0.11271
1675.82,-0.11331
1675.83,-0.11353
1675.84,-0.11419
1675.85,-0.11414
1675.86,-0.11461
1675.87,-0.1154
1675.88,-0.11611
1675.89,-0.11638
1675.9,-0.11618
1675.91,-0.11584
1675.92,-0.11572
1675.93,-0.11493
1675.94,-0.11379
1675.95,-0.11294
1675.96,-0.11201
1675.97,-0.11096
1675.98,-0.11087
1675.99,-0.10991
1676,-0.1098
1676.01,-0.10975
1676.02,-0.10971
1676.03,-0.10951
1676.04,-0.10927
1676.05,-0.10918
1676.06,-0.10902
1676.07,-0.10855
1676.08,-0.10935
1676.09,-0.10844
1676.1,-0.10883
1676.11,-0.10908
1676.12,-0.10944
1676.13,-0.1096
1676.14,-0.10968
1676.15,-0.11027
1676.16,-0.10973
1676.17,-0.11011
1676.18,-0.11035
1676.19,-0.1109
1676.2,-0.11096
1676.21,-0.11084
1676.22,-0.11073
1676.23,-0.11027
1676.24,-0.11164
1676.25,-0.11187
1676.26,-0.11216
1676.27,-0.11252
1676.28,-0.1134
1676.29,-0.11404
1676.3,-0.11425
1676.31,-0.11477
1676.32,-0.11511
1676.33,-0.11575
1676.34,-0.11519
1676.35,-0.11488
1676.36,-0.11419
1676.37,-0.11336
1676.38,-0.11211
1676.39,-0.11104
1676.4,-0.11059
1676.41,-0.11082
1676.42,-0.1095
1676.43,-0.10953
1676.44,-0.10973
1676.45,-0.1092
1676.46,-0.11003
1676.47,-0.11006
1676.48,-0.10992
1676.49,-0.10953
1676.5,-0.11043
1676.51,-0.11018
1676.52,-0.11041
1676.53,-0.11003
1676.54,-0.11074
1676.55,-0.11117
1676.56,-0.11168
1676.57,-0.1121
1676.58,-0.11363
1676.59,-0.11391
1676.6,-0.11462
1676.61,-0.11541
1676.62,-0.11553
1676.63,-0.117
1676.64,-0.11702
1676.65,-0.11781
1676.66,-0.11781
1676.67,-0.11791
1676.68,-0.11762
1676.69,-0.11768
1676.7,-0.11589
1676.71,-0.11552
1676.72,-0.11456
1676.73,-0.11305
1676.74,-0.11184
1676.75,-0.11147
1676.76,-0.11028
1676.77,-0.11049
1676.78,-0.10993
1676.79,-0.10984
1676.8,-0.11007
1676.81,-0.10935
1676.82,-0.11001
1676.83,-0.10914
1676.84,-0.10909
1676.85,-0.10943
1676.86,-0.10912
1676.87,-0.10914
1676.88,-0.10874
1676.89,-0.10881
1676.9,-0.1089
1676.91,-0.10958
1676.92,-0.10954
1676.93,-0.11009
1676.94,-0.11103
1676.95,-0.11116
1676.96,-0.11109
1676.97,-0.11283
1676.98,-0.11387
1676.99,-0.11246
1677,-0.1135
1677.01,-0.11284
1677.02,-0.11243
1677.03,-0.11175
1677.04,-0.11147
1677.05,-0.11013
1677.06,-0.10929
1677.07,-0.10867
1677.08,-0.10726
1677.09,-0.10774
1677.1,-0.10632
1677.11,-0.10654
1677.12,-0.10642
1677.13,-0.10655
1677.14,-0.10671
1677.15,-0.10607
1677.16,-0.1065
1677.17,-0.10657
1677.18,-0.10664
1677.19,-0.10719
1677.2,-0.10766
1677.21,-0.10777
1677.22,-0.11016
1677.23,-0.10978
1677.24,-0.11021
1677.25,-0.10963
1677.26,-0.11093
1677.27,-0.10953
1677.28,-0.1093
1677.29,-0.10856
1677.3,-0.10818
1677.31,-0.10695
1677.32,-0.10725
1677.33,-0.10696
1677.34,-0.10748
1677.35,-0.1079
1677.36,-0.10755
1677.37,-0.10753
1677.38,-0.10753
1677.39,-0.10738
1677.4,-0.1073
1677.41,-0.10743
1677.42,-0.10787
1677.43,-0.10874
1677.44,-0.10951
1677.45,-0.11025
1677.46,-0.10948
1677.47,-0.1091
1677.48,-0.11692
1677.49,-0.14915
1677.5,-0.23137
1677.51,-0.3698
1677.52,-0.60035
1677.53,-0.92262
1677.54,-1.30023
1677.55,-1.70041
1677.56,-2.06449
1677.57,-2.33798
1677.58,-2.49652
1677.59,-2.50216
1677.6,-2.371
1677.61,-2.11134
1677.62,-1.77094
1677.63,-1.38711
1677.64,-1.02311
1677.65,-0.68649
1677.66,-0.44976
1677.67,-0.2848
1677.68,-0.18887
1677.69,-0.14011
1677.7,-0.11881
1677.71,-0.11217
1677.72,-0.11007
1677.73,-0.10864
1677.74,-0.10833
1677.75,-0.10793
1677.76,-0.10784
1677.77,-0.10715
1677.78,-0.10653
1677.79,-0.10631
1677.8,-0.10683
1677.81,-0.10675
1677.82,-0.10682
1677.83,-0.10712
1677.84,-0.10628
1677.85,-0.10649
1677.86,-0.10626
1677.87,-0.10657
1677.88,-0.10623
1677.89,-0.10685
1677.9,-0.10712
1677.91,-0.10732
1677.92,-0.10712
1677.93,-0.10763
1677.94,-0.1081
1677.95,-0.10789
1677.96,-0.10861
1677.97,-0.10858
1677.98,-0.10913
1677.99,-0.10947
1678,-0.10995
1678.01,-0.11035
1678.02,-0.11024
1678.03,-0.1111
1678.04,-0.1108
1678.05,-0.1107
1678.06,-0.11085
1678.07,-0.11017
1678.08,-0.10983
1678.09,-0.10952
1678.1,-0.10868
1678.11,-0.10917
1678.12,-0.10893
1678.13,-0.10831
1678.14,-0.10791
1678.15,-0.10796
1678.16,-0.10788
1678.17,-0.10727
1678.18,-0.10702
1678.19,-0.10668
1678.2,-0.10685
1678.21,-0.10661
1678.22,-0.10637
1678.23,-0.10651
1678.24,-0.10651
1678.25,-0.1067
1678.26,-0.10724
1678.27,-0.10692
1678.28,-0.10724
1678.29,-0.10728
1678.3,-0.1072
1678.31,-0.10745
1678.32,-0.10688
1678.33,-0.10737
1678.34,-0.10746
1678.35,-0.10767
1678.36,-0.10838
1678.37,-0.10764
1678.38,-0.10718
1678.39,-0.10711
1678.4,-0.1071
1678.41,-0.10676
1678.42,-0.10583
1678.43,-0.10616
1678.44,-0.10571
1678.45,-0.10625
1678.46,-0.10603
1678.47,-0.10621
1678.48,-0.1069
1678.49,-0.10643
1678.5,-0.1066
1678.51,-0.10687
1678.52,-0.10677
1678.53,-0.10756
1678.54,-0.10764
1678.55,-0.10837
1678.56,-0.10886
1678.57,-0.10969
1678.58,-0.11109
1678.59,-0.11122
1678.6,-0.11216
1678.61,-0.11201
1678.62,-0.11181
1678.63,-0.11135
1678.64,-0.11198
1678.65,-0.11023
1678.66,-0.10987
1678.67,-0.10862
1678.68,-0.10886
1678.69,-0.10854
1678.7,-0.10726
1678.71,-0.10806
1678.72,-0.10735
1678.73,-0.10636
1678.74,-0.10668
1678.75,-0.10582
1678.76,-0.10619
1678.77,-0.10589
1678.78,-0.10581
1678.79,-0.10583
1678.8,-0.10609
1678.81,-0.10636
1678.82,-0.10673
1678.83,-0.10626
1678.84,-0.10759
1678.85,-0.10674
1678.86,-0.10747
1678.87,-0.10778
1678.88,-0.10814
1678.89,-0.10798
1678.9,-0.1083
1678.91,-0.10866
1678.92,-0.10849
1678.93,-0.10873
1678.94,-0.10806
1678.95,-0.10826
1678.96,-0.10794
1678.97,-0.10695
1678.98,-0.10756
1678.99,-0.10699
1679,-0.10753
1679.01,-0.10711
1679.02,-0.10797
1679.03,-0.10775
1679.04,-0.10967
1679.05,-0.1099
1679.06,-0.11077
1679.07,-0.11162
1679.08,-0.11326
1679.09,-0.1137
1679.1,-0.11451
1679.11,-0.11582
1679.12,-0.11614
1679.13,-0.11596
1679.14,-0.11555
1679.15,-0.11502
1679.16,-0.1129
1679.17,-0.11221
1679.18,-0.11105
1679.19,-0.10958
1679.2,-0.10851
1679.21,-0.10741
1679.22,-0.10691
1679.23,-0.10642
1679.24,-0.10662
1679.25,-0.10669
1679.26,-0.10557
1679.27,-0.1062
1679.28,-0.10625
1679.29,-0.10571
1679.3,-0.10593
1679.31,-0.10597
1679.32,-0.10594
1679.33,-0.10502
1679.34,-0.1056
1679.35,-0.1063
1679.36,-0.10671
1679.37,-0.10722
1679.38,-0.10799
1679.39,-0.10755
1679.4,-0.10908
1679.41,-0.10889
1679.42,-0.1092
1679.43,-0.10994
1679.44,-0.10914
1679.45,-0.10912
1679.46,-0.10953
1679.47,-0.11015
1679.48,-0.10974
1679.49,-0.11057
1679.5,-0.11277
1679.51,-0.11289
1679.52,-0.11435
1679.53,-0.11528
1679.54,-0.11593
1679.55,-0.11617
1679.56,-0.11562
1679.57,-0.11515
1679.58,-0.11456
1679.59,-0.1132
1679.6,-0.11189
1679.61,-0.11011
1679.62,-0.10897
1679.63,-0.10793
1679.64,-0.10747
1679.65,-0.10662
1679.66,-0.10636
1679.67,-0.10577
1679.68,-0.10558
1679.69,-0.10532
1679.7,-0.10563
1679.71,-0.10611
1679.72,-0.10574
1679.73,-0.106
1679.74,-0.10601
1679.75,-0.10627
1679.76,-0.10589
1679.77,-0.10647
1679.78,-0.10701
1679.79,-0.10731
1679.8,-0.10869
1679.81,-0.10951
1679.82,-0.10998
1679.83,-0.1114
1679.84,-0.11262
1679.85,-0.11345
1679.86,-0.11411
1679.87,-0.11542
1679.88,-0.11646
1679.89,-0.11649
1679.9,-0.11689
1679.91,-0.11695
1679.92,-0.11663
1679.93,-0.11545
1679.94,-0.11356
1679.95,-0.11181
1679.96,-0.11071
1679.97,-0.10969
1679.98,-0.10782
1679.99,-0.1074
1680,-0.1064
