3/04/2024,3:37:47 PM
Software,STS IL/PDL,IL,Normal,1.3.3.0
TSL,SANTEC,TSL-570,23020004,0022.0017.0009
PowerMeter,SANTEC,MPM-210H,23020023,Ver.1.19
,Module0,MPM-211,23020025M211,Ver.1.22
Power Monitor,DAQ
Start,1600,nm
Stop,1680,nm
Step,0.01,nm
Speed,20,nm/s
Source Power,10,dBm
Averaging Time,0.5,msec
Power meter range,23020025M211,(Ch1),-30～+10dBm,-40～ 0dBm
--HEADER END--
--DATA START--
Wavelength(nm),IL_M1_S0_CH1
1600,-0.08757
1600.01,-0.08773
1600.02,-0.08736
1600.03,-0.08818
1600.04,-0.08772
1600.05,-0.08672
1600.06,-0.08744
1600.07,-0.08696
1600.08,-0.08693
1600.09,-0.08727
1600.1,-0.08735
1600.11,-0.08799
1600.12,-0.08748
1600.13,-0.08745
1600.14,-0.08776
1600.15,-0.08731
1600.16,-0.08723
1600.17,-0.08735
1600.18,-0.08713
1600.19,-0.0873
1600.2,-0.08761
1600.21,-0.08725
1600.22,-0.087
1600.23,-0.08829
1600.24,-0.08769
1600.25,-0.0883
1600.26,-0.08738
1600.27,-0.08778
1600.28,-0.08727
1600.29,-0.08722
1600.3,-0.08761
1600.31,-0.08746
1600.32,-0.08808
1600.33,-0.08759
1600.34,-0.08799
1600.35,-0.08834
1600.36,-0.08771
1600.37,-0.08767
1600.38,-0.08738
1600.39,-0.0878
1600.4,-0.08717
1600.41,-0.08756
1600.42,-0.08804
1600.43,-0.0883
1600.44,-0.08814
1600.45,-0.08798
1600.46,-0.08848
1600.47,-0.08834
1600.48,-0.08839
1600.49,-0.08816
1600.5,-0.08776
1600.51,-0.0884
1600.52,-0.08847
1600.53,-0.08857
1600.54,-0.08813
1600.55,-0.0888
1600.56,-0.0888
1600.57,-0.08848
1600.58,-0.08867
1600.59,-0.08875
1600.6,-0.08876
1600.61,-0.08807
1600.62,-0.08847
1600.63,-0.08804
1600.64,-0.08867
1600.65,-0.08826
1600.66,-0.08907
1600.67,-0.08875
1600.68,-0.08942
1600.69,-0.08854
1600.7,-0.08857
1600.71,-0.08869
1600.72,-0.08842
1600.73,-0.08841
1600.74,-0.0878
1600.75,-0.08819
1600.76,-0.08826
1600.77,-0.08864
1600.78,-0.08856
1600.79,-0.08897
1600.8,-0.08821
1600.81,-0.08828
1600.82,-0.08827
1600.83,-0.0884
1600.84,-0.08813
1600.85,-0.08793
1600.86,-0.08811
1600.87,-0.08779
1600.88,-0.08835
1600.89,-0.08849
1600.9,-0.08864
1600.91,-0.08913
1600.92,-0.08847
1600.93,-0.0882
1600.94,-0.08769
1600.95,-0.08846
1600.96,-0.08807
1600.97,-0.08794
1600.98,-0.08833
1600.99,-0.08778
1601,-0.08863
1601.01,-0.08855
1601.02,-0.0884
1601.03,-0.08872
1601.04,-0.08868
1601.05,-0.08801
1601.06,-0.08809
1601.07,-0.08766
1601.08,-0.08794
1601.09,-0.08768
1601.1,-0.08824
1601.11,-0.08847
1601.12,-0.08812
1601.13,-0.08808
1601.14,-0.08789
1601.15,-0.08837
1601.16,-0.08789
1601.17,-0.08764
1601.18,-0.08757
1601.19,-0.08759
1601.2,-0.08781
1601.21,-0.08801
1601.22,-0.08779
1601.23,-0.08824
1601.24,-0.08833
1601.25,-0.08755
1601.26,-0.08743
1601.27,-0.08746
1601.28,-0.0875
1601.29,-0.08737
1601.3,-0.08741
1601.31,-0.08742
1601.32,-0.08757
1601.33,-0.08825
1601.34,-0.08813
1601.35,-0.08796
1601.36,-0.08796
1601.37,-0.08784
1601.38,-0.08769
1601.39,-0.08746
1601.4,-0.08713
1601.41,-0.08801
1601.42,-0.08715
1601.43,-0.08761
1601.44,-0.08841
1601.45,-0.08791
1601.46,-0.08832
1601.47,-0.08839
1601.48,-0.08862
1601.49,-0.08824
1601.5,-0.08768
1601.51,-0.0878
1601.52,-0.0883
1601.53,-0.0883
1601.54,-0.08844
1601.55,-0.08813
1601.56,-0.08817
1601.57,-0.08888
1601.58,-0.08884
1601.59,-0.08875
1601.6,-0.08854
1601.61,-0.08846
1601.62,-0.08836
1601.63,-0.08806
1601.64,-0.08912
1601.65,-0.08861
1601.66,-0.08903
1601.67,-0.08895
1601.68,-0.0897
1601.69,-0.08903
1601.7,-0.08929
1601.71,-0.08929
1601.72,-0.08919
1601.73,-0.08879
1601.74,-0.0888
1601.75,-0.08842
1601.76,-0.0891
1601.77,-0.08939
1601.78,-0.08978
1601.79,-0.08947
1601.8,-0.08941
1601.81,-0.08937
1601.82,-0.08924
1601.83,-0.08944
1601.84,-0.08951
1601.85,-0.08975
1601.86,-0.08929
1601.87,-0.08898
1601.88,-0.08959
1601.89,-0.08978
1601.9,-0.08981
1601.91,-0.09059
1601.92,-0.08975
1601.93,-0.08987
1601.94,-0.08933
1601.95,-0.09006
1601.96,-0.08941
1601.97,-0.08926
1601.98,-0.08966
1601.99,-0.08955
1602,-0.0897
1602.01,-0.09011
1602.02,-0.08986
1602.03,-0.08981
1602.04,-0.08979
1602.05,-0.08943
1602.06,-0.08956
1602.07,-0.08961
1602.08,-0.08967
1602.09,-0.08974
1602.1,-0.08961
1602.11,-0.09
1602.12,-0.08995
1602.13,-0.08969
1602.14,-0.09006
1602.15,-0.09002
1602.16,-0.0901
1602.17,-0.08969
1602.18,-0.08927
1602.19,-0.08916
1602.2,-0.08974
1602.21,-0.08952
1602.22,-0.09023
1602.23,-0.08971
1602.24,-0.08985
1602.25,-0.09062
1602.26,-0.08984
1602.27,-0.08904
1602.28,-0.08953
1602.29,-0.08968
1602.3,-0.08939
1602.31,-0.08963
1602.32,-0.08931
1602.33,-0.08969
1602.34,-0.09037
1602.35,-0.09005
1602.36,-0.08953
1602.37,-0.09033
1602.38,-0.08917
1602.39,-0.08941
1602.4,-0.08978
1602.41,-0.08945
1602.42,-0.08917
1602.43,-0.08926
1602.44,-0.08932
1602.45,-0.08993
1602.46,-0.08949
1602.47,-0.09015
1602.48,-0.08942
1602.49,-0.08926
1602.5,-0.08892
1602.51,-0.08921
1602.52,-0.08905
1602.53,-0.08869
1602.54,-0.08928
1602.55,-0.08941
1602.56,-0.08875
1602.57,-0.08993
1602.58,-0.08962
1602.59,-0.0898
1602.6,-0.08963
1602.61,-0.08902
1602.62,-0.08908
1602.63,-0.08904
1602.64,-0.08891
1602.65,-0.08926
1602.66,-0.08915
1602.67,-0.08915
1602.68,-0.08915
1602.69,-0.08976
1602.7,-0.09006
1602.71,-0.0896
1602.72,-0.08881
1602.73,-0.08976
1602.74,-0.08886
1602.75,-0.089
1602.76,-0.08963
1602.77,-0.08954
1602.78,-0.08959
1602.79,-0.08944
1602.8,-0.08977
1602.81,-0.08953
1602.82,-0.08977
1602.83,-0.08996
1602.84,-0.08902
1602.85,-0.08954
1602.86,-0.08926
1602.87,-0.08944
1602.88,-0.08981
1602.89,-0.09019
1602.9,-0.09017
1602.91,-0.08988
1602.92,-0.09033
1602.93,-0.09008
1602.94,-0.08995
1602.95,-0.09013
1602.96,-0.08981
1602.97,-0.09051
1602.98,-0.0886
1602.99,-0.09109
1603,-0.08962
1603.01,-0.08995
1603.02,-0.09016
1603.03,-0.09044
1603.04,-0.0903
1603.05,-0.09015
1603.06,-0.08977
1603.07,-0.0903
1603.08,-0.08964
1603.09,-0.09003
1603.1,-0.09001
1603.11,-0.09005
1603.12,-0.09017
1603.13,-0.09044
1603.14,-0.09073
1603.15,-0.09071
1603.16,-0.09049
1603.17,-0.09004
1603.18,-0.08971
1603.19,-0.08985
1603.2,-0.09014
1603.21,-0.09037
1603.22,-0.09023
1603.23,-0.09035
1603.24,-0.09034
1603.25,-0.0904
1603.26,-0.09063
1603.27,-0.09044
1603.28,-0.09051
1603.29,-0.09006
1603.3,-0.09021
1603.31,-0.08987
1603.32,-0.09019
1603.33,-0.09062
1603.34,-0.09108
1603.35,-0.09053
1603.36,-0.09098
1603.37,-0.09093
1603.38,-0.09018
1603.39,-0.09093
1603.4,-0.09038
1603.41,-0.09041
1603.42,-0.08991
1603.43,-0.08989
1603.44,-0.09079
1603.45,-0.09157
1603.46,-0.08894
1603.47,-0.09199
1603.48,-0.0905
1603.49,-0.09091
1603.5,-0.09049
1603.51,-0.0901
1603.52,-0.09016
1603.53,-0.09023
1603.54,-0.08977
1603.55,-0.08993
1603.56,-0.09073
1603.57,-0.09076
1603.58,-0.09041
1603.59,-0.09051
1603.6,-0.09014
1603.61,-0.09004
1603.62,-0.08993
1603.63,-0.08984
1603.64,-0.08928
1603.65,-0.08992
1603.66,-0.08993
1603.67,-0.09011
1603.68,-0.08981
1603.69,-0.09004
1603.7,-0.0899
1603.71,-0.09048
1603.72,-0.08952
1603.73,-0.08957
1603.74,-0.08968
1603.75,-0.08911
1603.76,-0.0898
1603.77,-0.08954
1603.78,-0.08981
1603.79,-0.08956
1603.8,-0.09001
1603.81,-0.09021
1603.82,-0.0897
1603.83,-0.08951
1603.84,-0.08964
1603.85,-0.08876
1603.86,-0.0885
1603.87,-0.08926
1603.88,-0.08976
1603.89,-0.09008
1603.9,-0.08967
1603.91,-0.09
1603.92,-0.08982
1603.93,-0.08957
1603.94,-0.08998
1603.95,-0.08937
1603.96,-0.0894
1603.97,-0.08932
1603.98,-0.08942
1603.99,-0.08927
1604,-0.08951
1604.01,-0.0899
1604.02,-0.09
1604.03,-0.08966
1604.04,-0.08982
1604.05,-0.08989
1604.06,-0.08912
1604.07,-0.0896
1604.08,-0.08955
1604.09,-0.08915
1604.1,-0.08947
1604.11,-0.0892
1604.12,-0.08977
1604.13,-0.09026
1604.14,-0.08984
1604.15,-0.0901
1604.16,-0.08931
1604.17,-0.08946
1604.18,-0.08953
1604.19,-0.08933
1604.2,-0.08941
1604.21,-0.08933
1604.22,-0.08942
1604.23,-0.08956
1604.24,-0.09004
1604.25,-0.09016
1604.26,-0.09032
1604.27,-0.0897
1604.28,-0.0896
1604.29,-0.08981
1604.3,-0.08967
1604.31,-0.09011
1604.32,-0.08991
1604.33,-0.09023
1604.34,-0.08998
1604.35,-0.08971
1604.36,-0.09002
1604.37,-0.09051
1604.38,-0.0904
1604.39,-0.09032
1604.4,-0.08991
1604.41,-0.08983
1604.42,-0.08971
1604.43,-0.08975
1604.44,-0.08963
1604.45,-0.08985
1604.46,-0.09052
1604.47,-0.09013
1604.48,-0.09022
1604.49,-0.0904
1604.5,-0.09024
1604.51,-0.08958
1604.52,-0.09031
1604.53,-0.08952
1604.54,-0.08985
1604.55,-0.09004
1604.56,-0.09031
1604.57,-0.09018
1604.58,-0.0906
1604.59,-0.09
1604.6,-0.0905
1604.61,-0.08978
1604.62,-0.08969
1604.63,-0.08944
1604.64,-0.08991
1604.65,-0.08923
1604.66,-0.08952
1604.67,-0.09015
1604.68,-0.09029
1604.69,-0.09022
1604.7,-0.09012
1604.71,-0.09049
1604.72,-0.09025
1604.73,-0.08994
1604.74,-0.08962
1604.75,-0.0898
1604.76,-0.08963
1604.77,-0.09013
1604.78,-0.08991
1604.79,-0.09032
1604.8,-0.09006
1604.81,-0.09045
1604.82,-0.09057
1604.83,-0.09005
1604.84,-0.09021
1604.85,-0.08997
1604.86,-0.08982
1604.87,-0.08982
1604.88,-0.08988
1604.89,-0.0901
1604.9,-0.0903
1604.91,-0.09101
1604.92,-0.0906
1604.93,-0.09047
1604.94,-0.09037
1604.95,-0.09079
1604.96,-0.09052
1604.97,-0.09001
1604.98,-0.08972
1604.99,-0.09032
1605,-0.09039
1605.01,-0.09072
1605.02,-0.0907
1605.03,-0.09074
1605.04,-0.09057
1605.05,-0.09063
1605.06,-0.09052
1605.07,-0.09116
1605.08,-0.08974
1605.09,-0.09068
1605.1,-0.08994
1605.11,-0.09036
1605.12,-0.09045
1605.13,-0.09089
1605.14,-0.09069
1605.15,-0.09047
1605.16,-0.09046
1605.17,-0.09047
1605.18,-0.09003
1605.19,-0.09063
1605.2,-0.08993
1605.21,-0.08945
1605.22,-0.09136
1605.23,-0.09048
1605.24,-0.08989
1605.25,-0.09093
1605.26,-0.09084
1605.27,-0.09053
1605.28,-0.0905
1605.29,-0.09022
1605.3,-0.09064
1605.31,-0.0899
1605.32,-0.09008
1605.33,-0.09012
1605.34,-0.09059
1605.35,-0.09
1605.36,-0.09112
1605.37,-0.09005
1605.38,-0.09075
1605.39,-0.09055
1605.4,-0.08995
1605.41,-0.09036
1605.42,-0.08973
1605.43,-0.08995
1605.44,-0.08967
1605.45,-0.09031
1605.46,-0.08982
1605.47,-0.09132
1605.48,-0.09071
1605.49,-0.09005
1605.5,-0.09013
1605.51,-0.09044
1605.52,-0.09004
1605.53,-0.09031
1605.54,-0.08976
1605.55,-0.08983
1605.56,-0.09002
1605.57,-0.09034
1605.58,-0.09063
1605.59,-0.09006
1605.6,-0.09054
1605.61,-0.09026
1605.62,-0.0903
1605.63,-0.08989
1605.64,-0.09018
1605.65,-0.08957
1605.66,-0.09026
1605.67,-0.08988
1605.68,-0.09043
1605.69,-0.09024
1605.7,-0.09033
1605.71,-0.0901
1605.72,-0.09023
1605.73,-0.09037
1605.74,-0.09059
1605.75,-0.08975
1605.76,-0.08995
1605.77,-0.08945
1605.78,-0.09025
1605.79,-0.08989
1605.8,-0.09067
1605.81,-0.09068
1605.82,-0.09013
1605.83,-0.09015
1605.84,-0.09057
1605.85,-0.08972
1605.86,-0.08999
1605.87,-0.09028
1605.88,-0.09062
1605.89,-0.09003
1605.9,-0.09078
1605.91,-0.09039
1605.92,-0.09078
1605.93,-0.09063
1605.94,-0.09094
1605.95,-0.09118
1605.96,-0.0908
1605.97,-0.09031
1605.98,-0.09071
1605.99,-0.08991
1606,-0.09141
1606.01,-0.09112
1606.02,-0.0913
1606.03,-0.09166
1606.04,-0.09178
1606.05,-0.09183
1606.06,-0.09126
1606.07,-0.09135
1606.08,-0.09104
1606.09,-0.09115
1606.1,-0.09145
1606.11,-0.09103
1606.12,-0.09142
1606.13,-0.09211
1606.14,-0.09189
1606.15,-0.09214
1606.16,-0.09192
1606.17,-0.09188
1606.18,-0.09177
1606.19,-0.09221
1606.2,-0.09192
1606.21,-0.09185
1606.22,-0.0921
1606.23,-0.09221
1606.24,-0.09239
1606.25,-0.09229
1606.26,-0.09277
1606.27,-0.0931
1606.28,-0.09277
1606.29,-0.09278
1606.3,-0.09219
1606.31,-0.09221
1606.32,-0.0926
1606.33,-0.09211
1606.34,-0.09281
1606.35,-0.09259
1606.36,-0.0927
1606.37,-0.09254
1606.38,-0.09347
1606.39,-0.09299
1606.4,-0.09296
1606.41,-0.09254
1606.42,-0.09243
1606.43,-0.09264
1606.44,-0.09243
1606.45,-0.09261
1606.46,-0.09331
1606.47,-0.09268
1606.48,-0.09322
1606.49,-0.09294
1606.5,-0.09277
1606.51,-0.09292
1606.52,-0.09302
1606.53,-0.09232
1606.54,-0.09285
1606.55,-0.09244
1606.56,-0.09231
1606.57,-0.09319
1606.58,-0.09341
1606.59,-0.09266
1606.6,-0.09269
1606.61,-0.09262
1606.62,-0.09265
1606.63,-0.09259
1606.64,-0.09251
1606.65,-0.09245
1606.66,-0.09242
1606.67,-0.09219
1606.68,-0.09257
1606.69,-0.09252
1606.7,-0.0928
1606.71,-0.09266
1606.72,-0.09242
1606.73,-0.09275
1606.74,-0.09275
1606.75,-0.09221
1606.76,-0.09202
1606.77,-0.09154
1606.78,-0.092
1606.79,-0.09211
1606.8,-0.09222
1606.81,-0.09187
1606.82,-0.09221
1606.83,-0.09197
1606.84,-0.09185
1606.85,-0.0917
1606.86,-0.09147
1606.87,-0.09135
1606.88,-0.09118
1606.89,-0.09164
1606.9,-0.09184
1606.91,-0.09143
1606.92,-0.09218
1606.93,-0.09145
1606.94,-0.09176
1606.95,-0.09174
1606.96,-0.09158
1606.97,-0.09153
1606.98,-0.09087
1606.99,-0.0912
1607,-0.09101
1607.01,-0.09137
1607.02,-0.09159
1607.03,-0.09153
1607.04,-0.09179
1607.05,-0.09176
1607.06,-0.0909
1607.07,-0.09175
1607.08,-0.0907
1607.09,-0.09165
1607.1,-0.09116
1607.11,-0.09127
1607.12,-0.09118
1607.13,-0.09167
1607.14,-0.09184
1607.15,-0.09188
1607.16,-0.09163
1607.17,-0.09106
1607.18,-0.09152
1607.19,-0.09142
1607.2,-0.09184
1607.21,-0.09113
1607.22,-0.09147
1607.23,-0.09196
1607.24,-0.0922
1607.25,-0.09169
1607.26,-0.09168
1607.27,-0.09207
1607.28,-0.09224
1607.29,-0.0923
1607.3,-0.09153
1607.31,-0.09126
1607.32,-0.09209
1607.33,-0.09166
1607.34,-0.09121
1607.35,-0.09251
1607.36,-0.09237
1607.37,-0.09234
1607.38,-0.09207
1607.39,-0.09218
1607.4,-0.09219
1607.41,-0.09232
1607.42,-0.09233
1607.43,-0.09213
1607.44,-0.09184
1607.45,-0.09233
1607.46,-0.09305
1607.47,-0.09293
1607.48,-0.09311
1607.49,-0.09291
1607.5,-0.09258
1607.51,-0.09336
1607.52,-0.09227
1607.53,-0.0926
1607.54,-0.09307
1607.55,-0.09248
1607.56,-0.09275
1607.57,-0.09293
1607.58,-0.09325
1607.59,-0.09385
1607.6,-0.09347
1607.61,-0.09325
1607.62,-0.0929
1607.63,-0.09266
1607.64,-0.09338
1607.65,-0.0924
1607.66,-0.0928
1607.67,-0.09336
1607.68,-0.09274
1607.69,-0.09332
1607.7,-0.09314
1607.71,-0.09365
1607.72,-0.0934
1607.73,-0.09319
1607.74,-0.09288
1607.75,-0.0928
1607.76,-0.09351
1607.77,-0.09276
1607.78,-0.09269
1607.79,-0.09333
1607.8,-0.09272
1607.81,-0.09329
1607.82,-0.09319
1607.83,-0.09362
1607.84,-0.09294
1607.85,-0.09305
1607.86,-0.09338
1607.87,-0.09234
1607.88,-0.09272
1607.89,-0.09299
1607.9,-0.0928
1607.91,-0.09303
1607.92,-0.09305
1607.93,-0.09334
1607.94,-0.09297
1607.95,-0.09276
1607.96,-0.09265
1607.97,-0.09274
1607.98,-0.09227
1607.99,-0.09243
1608,-0.09238
1608.01,-0.09262
1608.02,-0.09282
1608.03,-0.09277
1608.04,-0.09274
1608.05,-0.0929
1608.06,-0.09245
1608.07,-0.09241
1608.08,-0.09232
1608.09,-0.09257
1608.1,-0.09183
1608.11,-0.09209
1608.12,-0.09224
1608.13,-0.09226
1608.14,-0.09212
1608.15,-0.09233
1608.16,-0.09266
1608.17,-0.09241
1608.18,-0.09205
1608.19,-0.09232
1608.2,-0.09205
1608.21,-0.09184
1608.22,-0.09192
1608.23,-0.09205
1608.24,-0.09222
1608.25,-0.09239
1608.26,-0.09207
1608.27,-0.09231
1608.28,-0.09225
1608.29,-0.09208
1608.3,-0.09198
1608.31,-0.09202
1608.32,-0.09173
1608.33,-0.09233
1608.34,-0.09156
1608.35,-0.09275
1608.36,-0.09245
1608.37,-0.09192
1608.38,-0.09222
1608.39,-0.09206
1608.4,-0.09205
1608.41,-0.09173
1608.42,-0.09199
1608.43,-0.09154
1608.44,-0.09172
1608.45,-0.09229
1608.46,-0.09155
1608.47,-0.09255
1608.48,-0.09287
1608.49,-0.09223
1608.5,-0.09212
1608.51,-0.09237
1608.52,-0.09221
1608.53,-0.09195
1608.54,-0.09183
1608.55,-0.09174
1608.56,-0.09161
1608.57,-0.09226
1608.58,-0.09249
1608.59,-0.0925
1608.6,-0.09268
1608.61,-0.09242
1608.62,-0.09249
1608.63,-0.09221
1608.64,-0.092
1608.65,-0.09221
1608.66,-0.09211
1608.67,-0.09221
1608.68,-0.09207
1608.69,-0.09241
1608.7,-0.09252
1608.71,-0.09304
1608.72,-0.09314
1608.73,-0.09203
1608.74,-0.09247
1608.75,-0.09223
1608.76,-0.09242
1608.77,-0.09224
1608.78,-0.09263
1608.79,-0.0929
1608.8,-0.09284
1608.81,-0.09318
1608.82,-0.09315
1608.83,-0.09304
1608.84,-0.09273
1608.85,-0.0928
1608.86,-0.09262
1608.87,-0.09292
1608.88,-0.09238
1608.89,-0.09305
1608.9,-0.09245
1608.91,-0.09276
1608.92,-0.09288
1608.93,-0.09255
1608.94,-0.09322
1608.95,-0.09297
1608.96,-0.09317
1608.97,-0.09319
1608.98,-0.09353
1608.99,-0.09342
1609,-0.09247
1609.01,-0.09294
1609.02,-0.09352
1609.03,-0.09276
1609.04,-0.09349
1609.05,-0.0933
1609.06,-0.09331
1609.07,-0.09283
1609.08,-0.09318
1609.09,-0.09299
1609.1,-0.09349
1609.11,-0.09317
1609.12,-0.09253
1609.13,-0.09312
1609.14,-0.09285
1609.15,-0.09377
1609.16,-0.09344
1609.17,-0.09362
1609.18,-0.09315
1609.19,-0.09308
1609.2,-0.09278
1609.21,-0.09288
1609.22,-0.09255
1609.23,-0.09345
1609.24,-0.0932
1609.25,-0.09346
1609.26,-0.09343
1609.27,-0.0931
1609.28,-0.09325
1609.29,-0.09274
1609.3,-0.09329
1609.31,-0.09307
1609.32,-0.09254
1609.33,-0.09313
1609.34,-0.09291
1609.35,-0.0926
1609.36,-0.09318
1609.37,-0.093
1609.38,-0.09297
1609.39,-0.09304
1609.4,-0.0934
1609.41,-0.0933
1609.42,-0.09307
1609.43,-0.09305
1609.44,-0.09282
1609.45,-0.0927
1609.46,-0.09333
1609.47,-0.09326
1609.48,-0.09331
1609.49,-0.09343
1609.5,-0.09281
1609.51,-0.09302
1609.52,-0.09319
1609.53,-0.09316
1609.54,-0.0931
1609.55,-0.09287
1609.56,-0.09269
1609.57,-0.09291
1609.58,-0.09328
1609.59,-0.09374
1609.6,-0.09357
1609.61,-0.09334
1609.62,-0.09315
1609.63,-0.09323
1609.64,-0.09299
1609.65,-0.09313
1609.66,-0.09274
1609.67,-0.09242
1609.68,-0.09313
1609.69,-0.09304
1609.7,-0.09303
1609.71,-0.09346
1609.72,-0.09328
1609.73,-0.09351
1609.74,-0.09331
1609.75,-0.09335
1609.76,-0.09324
1609.77,-0.09337
1609.78,-0.09298
1609.79,-0.09324
1609.8,-0.09321
1609.81,-0.09368
1609.82,-0.09287
1609.83,-0.09361
1609.84,-0.09343
1609.85,-0.09332
1609.86,-0.09369
1609.87,-0.09315
1609.88,-0.09285
1609.89,-0.09305
1609.9,-0.09362
1609.91,-0.09342
1609.92,-0.09345
1609.93,-0.09325
1609.94,-0.0937
1609.95,-0.09357
1609.96,-0.09288
1609.97,-0.09465
1609.98,-0.09327
1609.99,-0.09289
1610,-0.09299
1610.01,-0.09312
1610.02,-0.09347
1610.03,-0.09358
1610.04,-0.09373
1610.05,-0.09371
1610.06,-0.09353
1610.07,-0.09341
1610.08,-0.0935
1610.09,-0.09338
1610.1,-0.09387
1610.11,-0.09332
1610.12,-0.09321
1610.13,-0.09319
1610.14,-0.09364
1610.15,-0.09358
1610.16,-0.09397
1610.17,-0.09389
1610.18,-0.09381
1610.19,-0.09391
1610.2,-0.09412
1610.21,-0.09344
1610.22,-0.09361
1610.23,-0.09367
1610.24,-0.09407
1610.25,-0.09357
1610.26,-0.09433
1610.27,-0.09415
1610.28,-0.09441
1610.29,-0.0942
1610.3,-0.09412
1610.31,-0.09429
1610.32,-0.09389
1610.33,-0.09365
1610.34,-0.09413
1610.35,-0.09415
1610.36,-0.09424
1610.37,-0.09434
1610.38,-0.09416
1610.39,-0.09429
1610.4,-0.09446
1610.41,-0.09411
1610.42,-0.09412
1610.43,-0.09448
1610.44,-0.09423
1610.45,-0.09382
1610.46,-0.09392
1610.47,-0.09468
1610.48,-0.09377
1610.49,-0.09525
1610.5,-0.09454
1610.51,-0.09449
1610.52,-0.09432
1610.53,-0.09449
1610.54,-0.09433
1610.55,-0.09462
1610.56,-0.09463
1610.57,-0.09416
1610.58,-0.09479
1610.59,-0.09473
1610.6,-0.09487
1610.61,-0.09507
1610.62,-0.09468
1610.63,-0.09473
1610.64,-0.09428
1610.65,-0.09472
1610.66,-0.09456
1610.67,-0.09394
1610.68,-0.09443
1610.69,-0.09446
1610.7,-0.09426
1610.71,-0.09473
1610.72,-0.09477
1610.73,-0.09502
1610.74,-0.09445
1610.75,-0.09439
1610.76,-0.09465
1610.77,-0.09428
1610.78,-0.09445
1610.79,-0.09406
1610.8,-0.09458
1610.81,-0.09463
1610.82,-0.09474
1610.83,-0.09448
1610.84,-0.09455
1610.85,-0.0946
1610.86,-0.09455
1610.87,-0.09421
1610.88,-0.094
1610.89,-0.09471
1610.9,-0.09434
1610.91,-0.0945
1610.92,-0.0949
1610.93,-0.09445
1610.94,-0.09458
1610.95,-0.09421
1610.96,-0.09433
1610.97,-0.09407
1610.98,-0.0942
1610.99,-0.09443
1611,-0.09382
1611.01,-0.09432
1611.02,-0.09383
1611.03,-0.09417
1611.04,-0.09457
1611.05,-0.0949
1611.06,-0.09436
1611.07,-0.09458
1611.08,-0.0943
1611.09,-0.09432
1611.1,-0.09482
1611.11,-0.094
1611.12,-0.09384
1611.13,-0.0942
1611.14,-0.09388
1611.15,-0.09444
1611.16,-0.09448
1611.17,-0.09454
1611.18,-0.09467
1611.19,-0.09439
1611.2,-0.0941
1611.21,-0.09457
1611.22,-0.09444
1611.23,-0.09411
1611.24,-0.09407
1611.25,-0.09402
1611.26,-0.09437
1611.27,-0.09417
1611.28,-0.09436
1611.29,-0.09398
1611.3,-0.09417
1611.31,-0.0941
1611.32,-0.09351
1611.33,-0.09424
1611.34,-0.09375
1611.35,-0.09407
1611.36,-0.09397
1611.37,-0.09405
1611.38,-0.0942
1611.39,-0.09369
1611.4,-0.0939
1611.41,-0.09421
1611.42,-0.09412
1611.43,-0.09372
1611.44,-0.0938
1611.45,-0.09357
1611.46,-0.09418
1611.47,-0.09398
1611.48,-0.09364
1611.49,-0.09417
1611.5,-0.09401
1611.51,-0.09418
1611.52,-0.09401
1611.53,-0.09395
1611.54,-0.09419
1611.55,-0.0943
1611.56,-0.09419
1611.57,-0.09421
1611.58,-0.0938
1611.59,-0.09438
1611.6,-0.09428
1611.61,-0.09449
1611.62,-0.094
1611.63,-0.09436
1611.64,-0.09428
1611.65,-0.09414
1611.66,-0.094
1611.67,-0.09435
1611.68,-0.09422
1611.69,-0.09437
1611.7,-0.09438
1611.71,-0.09453
1611.72,-0.09448
1611.73,-0.09412
1611.74,-0.09448
1611.75,-0.09403
1611.76,-0.09456
1611.77,-0.09421
1611.78,-0.09442
1611.79,-0.09468
1611.8,-0.0948
1611.81,-0.09427
1611.82,-0.09486
1611.83,-0.09447
1611.84,-0.09466
1611.85,-0.09456
1611.86,-0.09479
1611.87,-0.0949
1611.88,-0.09458
1611.89,-0.09469
1611.9,-0.09428
1611.91,-0.09523
1611.92,-0.09503
1611.93,-0.09462
1611.94,-0.09509
1611.95,-0.09499
1611.96,-0.09524
1611.97,-0.09441
1611.98,-0.09528
1611.99,-0.0948
1612,-0.09522
1612.01,-0.09488
1612.02,-0.09504
1612.03,-0.09488
1612.04,-0.09509
1612.05,-0.09523
1612.06,-0.09491
1612.07,-0.09488
1612.08,-0.09535
1612.09,-0.09488
1612.1,-0.0952
1612.11,-0.09496
1612.12,-0.09477
1612.13,-0.09521
1612.14,-0.09542
1612.15,-0.09535
1612.16,-0.09516
1612.17,-0.09562
1612.18,-0.095
1612.19,-0.0958
1612.2,-0.09527
1612.21,-0.09556
1612.22,-0.0955
1612.23,-0.09547
1612.24,-0.09471
1612.25,-0.09523
1612.26,-0.09565
1612.27,-0.09512
1612.28,-0.09508
1612.29,-0.09509
1612.3,-0.09511
1612.31,-0.09548
1612.32,-0.09526
1612.33,-0.09466
1612.34,-0.09464
1612.35,-0.09499
1612.36,-0.09455
1612.37,-0.09503
1612.38,-0.09527
1612.39,-0.09522
1612.4,-0.09464
1612.41,-0.09494
1612.42,-0.0946
1612.43,-0.09428
1612.44,-0.09475
1612.45,-0.09417
1612.46,-0.09448
1612.47,-0.09405
1612.48,-0.09482
1612.49,-0.0944
1612.5,-0.09474
1612.51,-0.09396
1612.52,-0.09489
1612.53,-0.09441
1612.54,-0.09397
1612.55,-0.0942
1612.56,-0.09423
1612.57,-0.09478
1612.58,-0.09371
1612.59,-0.094
1612.6,-0.09427
1612.61,-0.09393
1612.62,-0.094
1612.63,-0.09413
1612.64,-0.09451
1612.65,-0.09369
1612.66,-0.09419
1612.67,-0.09419
1612.68,-0.09409
1612.69,-0.09433
1612.7,-0.09427
1612.71,-0.09421
1612.72,-0.09427
1612.73,-0.09421
1612.74,-0.09435
1612.75,-0.09418
1612.76,-0.09397
1612.77,-0.09405
1612.78,-0.0942
1612.79,-0.09377
1612.8,-0.09403
1612.81,-0.09431
1612.82,-0.09379
1612.83,-0.09449
1612.84,-0.09425
1612.85,-0.09423
1612.86,-0.0943
1612.87,-0.09376
1612.88,-0.09417
1612.89,-0.09413
1612.9,-0.09388
1612.91,-0.09445
1612.92,-0.09465
1612.93,-0.0942
1612.94,-0.09467
1612.95,-0.09391
1612.96,-0.09419
1612.97,-0.09418
1612.98,-0.0944
1612.99,-0.09472
1613,-0.09424
1613.01,-0.0947
1613.02,-0.09511
1613.03,-0.09446
1613.04,-0.09481
1613.05,-0.09498
1613.06,-0.09479
1613.07,-0.09444
1613.08,-0.09475
1613.09,-0.09474
1613.1,-0.09517
1613.11,-0.09485
1613.12,-0.09464
1613.13,-0.095
1613.14,-0.09501
1613.15,-0.09504
1613.16,-0.09563
1613.17,-0.09505
1613.18,-0.09518
1613.19,-0.09526
1613.2,-0.09515
1613.21,-0.09515
1613.22,-0.09607
1613.23,-0.09511
1613.24,-0.09579
1613.25,-0.09532
1613.26,-0.09531
1613.27,-0.09553
1613.28,-0.09572
1613.29,-0.096
1613.3,-0.09529
1613.31,-0.09613
1613.32,-0.0952
1613.33,-0.09578
1613.34,-0.09559
1613.35,-0.09596
1613.36,-0.09582
1613.37,-0.09517
1613.38,-0.09614
1613.39,-0.09606
1613.4,-0.09563
1613.41,-0.09588
1613.42,-0.09636
1613.43,-0.09616
1613.44,-0.09557
1613.45,-0.09642
1613.46,-0.09605
1613.47,-0.09559
1613.48,-0.09705
1613.49,-0.09628
1613.5,-0.09649
1613.51,-0.09567
1613.52,-0.09617
1613.53,-0.09638
1613.54,-0.09602
1613.55,-0.09625
1613.56,-0.0962
1613.57,-0.0962
1613.58,-0.09584
1613.59,-0.09606
1613.6,-0.09618
1613.61,-0.09573
1613.62,-0.09576
1613.63,-0.09624
1613.64,-0.09593
1613.65,-0.09588
1613.66,-0.09555
1613.67,-0.09638
1613.68,-0.09584
1613.69,-0.09538
1613.7,-0.09632
1613.71,-0.09553
1613.72,-0.09573
1613.73,-0.09612
1613.74,-0.09522
1613.75,-0.09564
1613.76,-0.09544
1613.77,-0.0952
1613.78,-0.09548
1613.79,-0.09556
1613.8,-0.09549
1613.81,-0.09591
1613.82,-0.0951
1613.83,-0.09533
1613.84,-0.09557
1613.85,-0.09518
1613.86,-0.09574
1613.87,-0.09544
1613.88,-0.09512
1613.89,-0.09512
1613.9,-0.09533
1613.91,-0.09522
1613.92,-0.09517
1613.93,-0.095
1613.94,-0.09503
1613.95,-0.09532
1613.96,-0.09473
1613.97,-0.0953
1613.98,-0.0946
1613.99,-0.09456
1614,-0.09503
1614.01,-0.09497
1614.02,-0.09472
1614.03,-0.09531
1614.04,-0.09468
1614.05,-0.09484
1614.06,-0.0948
1614.07,-0.09445
1614.08,-0.09495
1614.09,-0.09466
1614.1,-0.0947
1614.11,-0.09478
1614.12,-0.09507
1614.13,-0.09498
1614.14,-0.09464
1614.15,-0.09478
1614.16,-0.09505
1614.17,-0.09511
1614.18,-0.09485
1614.19,-0.09542
1614.2,-0.09496
1614.21,-0.0952
1614.22,-0.09477
1614.23,-0.09511
1614.24,-0.09547
1614.25,-0.09515
1614.26,-0.09477
1614.27,-0.09499
1614.28,-0.09519
1614.29,-0.09499
1614.3,-0.09506
1614.31,-0.09566
1614.32,-0.09568
1614.33,-0.0951
1614.34,-0.09541
1614.35,-0.0953
1614.36,-0.09519
1614.37,-0.09536
1614.38,-0.09492
1614.39,-0.09484
1614.4,-0.095
1614.41,-0.09506
1614.42,-0.09508
1614.43,-0.09523
1614.44,-0.09548
1614.45,-0.09539
1614.46,-0.0952
1614.47,-0.09537
1614.48,-0.0957
1614.49,-0.09595
1614.5,-0.0953
1614.51,-0.09552
1614.52,-0.09593
1614.53,-0.09549
1614.54,-0.0955
1614.55,-0.09591
1614.56,-0.09599
1614.57,-0.09592
1614.58,-0.09611
1614.59,-0.09643
1614.6,-0.0961
1614.61,-0.09568
1614.62,-0.09571
1614.63,-0.09625
1614.64,-0.09591
1614.65,-0.0964
1614.66,-0.09572
1614.67,-0.09595
1614.68,-0.09642
1614.69,-0.09648
1614.7,-0.09615
1614.71,-0.09629
1614.72,-0.09605
1614.73,-0.0961
1614.74,-0.09621
1614.75,-0.09641
1614.76,-0.09592
1614.77,-0.09668
1614.78,-0.0962
1614.79,-0.09648
1614.8,-0.0963
1614.81,-0.09598
1614.82,-0.0963
1614.83,-0.09603
1614.84,-0.09617
1614.85,-0.09584
1614.86,-0.09605
1614.87,-0.09598
1614.88,-0.09632
1614.89,-0.09605
1614.9,-0.09603
1614.91,-0.09609
1614.92,-0.09627
1614.93,-0.09612
1614.94,-0.096
1614.95,-0.09583
1614.96,-0.0958
1614.97,-0.09547
1614.98,-0.09582
1614.99,-0.09565
1615,-0.09679
1615.01,-0.09647
1615.02,-0.0964
1615.03,-0.09634
1615.04,-0.09617
1615.05,-0.09622
1615.06,-0.09571
1615.07,-0.09606
1615.08,-0.09647
1615.09,-0.09604
1615.1,-0.09643
1615.11,-0.09577
1615.12,-0.09648
1615.13,-0.09616
1615.14,-0.0965
1615.15,-0.09592
1615.16,-0.09647
1615.17,-0.09599
1615.18,-0.09645
1615.19,-0.09603
1615.2,-0.09629
1615.21,-0.09594
1615.22,-0.09633
1615.23,-0.09625
1615.24,-0.09609
1615.25,-0.09544
1615.26,-0.09623
1615.27,-0.09584
1615.28,-0.09557
1615.29,-0.09597
1615.3,-0.0959
1615.31,-0.09618
1615.32,-0.09608
1615.33,-0.09636
1615.34,-0.09615
1615.35,-0.0962
1615.36,-0.09585
1615.37,-0.09618
1615.38,-0.09548
1615.39,-0.09654
1615.4,-0.09588
1615.41,-0.0961
1615.42,-0.09529
1615.43,-0.09633
1615.44,-0.09658
1615.45,-0.09646
1615.46,-0.09619
1615.47,-0.09645
1615.48,-0.09611
1615.49,-0.0962
1615.5,-0.0958
1615.51,-0.09563
1615.52,-0.09596
1615.53,-0.09608
1615.54,-0.0962
1615.55,-0.09658
1615.56,-0.0957
1615.57,-0.09647
1615.58,-0.09597
1615.59,-0.09679
1615.6,-0.09588
1615.61,-0.09635
1615.62,-0.09555
1615.63,-0.09625
1615.64,-0.09565
1615.65,-0.09631
1615.66,-0.09634
1615.67,-0.09638
1615.68,-0.09642
1615.69,-0.09605
1615.7,-0.09622
1615.71,-0.0959
1615.72,-0.09733
1615.73,-0.09584
1615.74,-0.09619
1615.75,-0.096
1615.76,-0.09651
1615.77,-0.09596
1615.78,-0.096
1615.79,-0.09625
1615.8,-0.09563
1615.81,-0.0964
1615.82,-0.09605
1615.83,-0.09629
1615.84,-0.09622
1615.85,-0.09604
1615.86,-0.09579
1615.87,-0.09615
1615.88,-0.09552
1615.89,-0.09624
1615.9,-0.09645
1615.91,-0.09629
1615.92,-0.09596
1615.93,-0.09597
1615.94,-0.09638
1615.95,-0.09576
1615.96,-0.0964
1615.97,-0.09573
1615.98,-0.09649
1615.99,-0.09584
1616,-0.09599
1616.01,-0.0963
1616.02,-0.09674
1616.03,-0.09622
1616.04,-0.09636
1616.05,-0.09633
1616.06,-0.09583
1616.07,-0.09625
1616.08,-0.09622
1616.09,-0.09622
1616.1,-0.09654
1616.11,-0.09627
1616.12,-0.09641
1616.13,-0.09664
1616.14,-0.09687
1616.15,-0.09628
1616.16,-0.09702
1616.17,-0.09619
1616.18,-0.09673
1616.19,-0.09686
1616.2,-0.09683
1616.21,-0.09653
1616.22,-0.09788
1616.23,-0.09651
1616.24,-0.09741
1616.25,-0.09721
1616.26,-0.09707
1616.27,-0.09724
1616.28,-0.09723
1616.29,-0.09709
1616.3,-0.09703
1616.31,-0.09708
1616.32,-0.09729
1616.33,-0.09738
1616.34,-0.09679
1616.35,-0.09709
1616.36,-0.09691
1616.37,-0.09744
1616.38,-0.09736
1616.39,-0.09733
1616.4,-0.09739
1616.41,-0.09732
1616.42,-0.09753
1616.43,-0.0973
1616.44,-0.09761
1616.45,-0.09736
1616.46,-0.09773
1616.47,-0.09816
1616.48,-0.09766
1616.49,-0.09771
1616.5,-0.09778
1616.51,-0.09767
1616.52,-0.0978
1616.53,-0.09782
1616.54,-0.09796
1616.55,-0.09786
1616.56,-0.0982
1616.57,-0.09815
1616.58,-0.09824
1616.59,-0.09792
1616.6,-0.09839
1616.61,-0.09809
1616.62,-0.09858
1616.63,-0.09765
1616.64,-0.09854
1616.65,-0.09812
1616.66,-0.09817
1616.67,-0.09792
1616.68,-0.09814
1616.69,-0.09831
1616.7,-0.09819
1616.71,-0.09861
1616.72,-0.09802
1616.73,-0.09823
1616.74,-0.09802
1616.75,-0.09821
1616.76,-0.09851
1616.77,-0.09803
1616.78,-0.09799
1616.79,-0.09809
1616.8,-0.09893
1616.81,-0.09834
1616.82,-0.09857
1616.83,-0.09829
1616.84,-0.09808
1616.85,-0.09811
1616.86,-0.09831
1616.87,-0.09818
1616.88,-0.09811
1616.89,-0.098
1616.9,-0.09849
1616.91,-0.09821
1616.92,-0.09825
1616.93,-0.09802
1616.94,-0.09852
1616.95,-0.09788
1616.96,-0.09857
1616.97,-0.0974
1616.98,-0.09835
1616.99,-0.09803
1617,-0.09795
1617.01,-0.09844
1617.02,-0.09816
1617.03,-0.09844
1617.04,-0.098
1617.05,-0.09868
1617.06,-0.09809
1617.07,-0.09793
1617.08,-0.09758
1617.09,-0.09831
1617.1,-0.09807
1617.11,-0.09793
1617.12,-0.0983
1617.13,-0.09796
1617.14,-0.09768
1617.15,-0.09845
1617.16,-0.09801
1617.17,-0.09818
1617.18,-0.09782
1617.19,-0.09814
1617.2,-0.09808
1617.21,-0.0982
1617.22,-0.0977
1617.23,-0.09821
1617.24,-0.09894
1617.25,-0.0977
1617.26,-0.09809
1617.27,-0.09837
1617.28,-0.09851
1617.29,-0.09817
1617.3,-0.09776
1617.31,-0.09791
1617.32,-0.09868
1617.33,-0.09841
1617.34,-0.09833
1617.35,-0.09854
1617.36,-0.09843
1617.37,-0.09843
1617.38,-0.0983
1617.39,-0.09868
1617.4,-0.09865
1617.41,-0.09823
1617.42,-0.09866
1617.43,-0.09822
1617.44,-0.09841
1617.45,-0.09831
1617.46,-0.09865
1617.47,-0.09859
1617.48,-0.0987
1617.49,-0.0989
1617.5,-0.09868
1617.51,-0.09865
1617.52,-0.09899
1617.53,-0.09922
1617.54,-0.09878
1617.55,-0.09927
1617.56,-0.09911
1617.57,-0.09963
1617.58,-0.09919
1617.59,-0.09924
1617.6,-0.09938
1617.61,-0.09925
1617.62,-0.09898
1617.63,-0.0993
1617.64,-0.09902
1617.65,-0.09892
1617.66,-0.0992
1617.67,-0.09903
1617.68,-0.09968
1617.69,-0.09944
1617.7,-0.1
1617.71,-0.09972
1617.72,-0.10004
1617.73,-0.09934
1617.74,-0.09923
1617.75,-0.09933
1617.76,-0.09972
1617.77,-0.09937
1617.78,-0.09981
1617.79,-0.09953
1617.8,-0.09983
1617.81,-0.10006
1617.82,-0.09984
1617.83,-0.10003
1617.84,-0.09972
1617.85,-0.10018
1617.86,-0.09972
1617.87,-0.09976
1617.88,-0.09953
1617.89,-0.09959
1617.9,-0.09969
1617.91,-0.09991
1617.92,-0.10036
1617.93,-0.09954
1617.94,-0.09959
1617.95,-0.09996
1617.96,-0.09911
1617.97,-0.0998
1617.98,-0.09939
1617.99,-0.09958
1618,-0.0999
1618.01,-0.09987
1618.02,-0.09974
1618.03,-0.09963
1618.04,-0.09986
1618.05,-0.09933
1618.06,-0.09962
1618.07,-0.09919
1618.08,-0.09894
1618.09,-0.0993
1618.1,-0.09935
1618.11,-0.09889
1618.12,-0.09902
1618.13,-0.09983
1618.14,-0.09974
1618.15,-0.09996
1618.16,-0.09934
1618.17,-0.09905
1618.18,-0.09919
1618.19,-0.09925
1618.2,-0.09937
1618.21,-0.0994
1618.22,-0.09909
1618.23,-0.09921
1618.24,-0.09927
1618.25,-0.09942
1618.26,-0.09898
1618.27,-0.09927
1618.28,-0.09928
1618.29,-0.09902
1618.3,-0.09905
1618.31,-0.09905
1618.32,-0.0994
1618.33,-0.09912
1618.34,-0.09929
1618.35,-0.09859
1618.36,-0.09907
1618.37,-0.09971
1618.38,-0.09887
1618.39,-0.09933
1618.4,-0.09883
1618.41,-0.09874
1618.42,-0.09853
1618.43,-0.09865
1618.44,-0.09894
1618.45,-0.09888
1618.46,-0.09854
1618.47,-0.09917
1618.48,-0.09911
1618.49,-0.0987
1618.5,-0.09946
1618.51,-0.09888
1618.52,-0.09859
1618.53,-0.09888
1618.54,-0.09872
1618.55,-0.09888
1618.56,-0.0992
1618.57,-0.09909
1618.58,-0.09873
1618.59,-0.09951
1618.6,-0.09958
1618.61,-0.09889
1618.62,-0.09881
1618.63,-0.09933
1618.64,-0.09866
1618.65,-0.09912
1618.66,-0.0993
1618.67,-0.09884
1618.68,-0.09918
1618.69,-0.09964
1618.7,-0.09938
1618.71,-0.09954
1618.72,-0.09948
1618.73,-0.0993
1618.74,-0.09921
1618.75,-0.099
1618.76,-0.0994
1618.77,-0.09914
1618.78,-0.09984
1618.79,-0.09953
1618.8,-0.09966
1618.81,-0.1001
1618.82,-0.09965
1618.83,-0.10023
1618.84,-0.0999
1618.85,-0.10006
1618.86,-0.09928
1618.87,-0.0996
1618.88,-0.09993
1618.89,-0.09931
1618.9,-0.09982
1618.91,-0.10024
1618.92,-0.09983
1618.93,-0.10074
1618.94,-0.10011
1618.95,-0.10017
1618.96,-0.09993
1618.97,-0.09997
1618.98,-0.10055
1618.99,-0.10011
1619,-0.10044
1619.01,-0.10001
1619.02,-0.10062
1619.03,-0.10041
1619.04,-0.10062
1619.05,-0.1002
1619.06,-0.10029
1619.07,-0.09993
1619.08,-0.10021
1619.09,-0.10024
1619.1,-0.09979
1619.11,-0.10046
1619.12,-0.10024
1619.13,-0.10054
1619.14,-0.1008
1619.15,-0.10078
1619.16,-0.10021
1619.17,-0.10023
1619.18,-0.10058
1619.19,-0.10002
1619.2,-0.10033
1619.21,-0.09994
1619.22,-0.1004
1619.23,-0.10032
1619.24,-0.10041
1619.25,-0.10061
1619.26,-0.09978
1619.27,-0.10074
1619.28,-0.10037
1619.29,-0.09985
1619.3,-0.09973
1619.31,-0.09981
1619.32,-0.10033
1619.33,-0.10044
1619.34,-0.10005
1619.35,-0.09971
1619.36,-0.09989
1619.37,-0.10039
1619.38,-0.10015
1619.39,-0.0997
1619.4,-0.09941
1619.41,-0.0998
1619.42,-0.09998
1619.43,-0.09963
1619.44,-0.09965
1619.45,-0.09975
1619.46,-0.09986
1619.47,-0.09978
1619.48,-0.10015
1619.49,-0.09972
1619.5,-0.1001
1619.51,-0.09935
1619.52,-0.09931
1619.53,-0.0997
1619.54,-0.09961
1619.55,-0.09974
1619.56,-0.09956
1619.57,-0.09922
1619.58,-0.09966
1619.59,-0.0996
1619.6,-0.09929
1619.61,-0.09988
1619.62,-0.0994
1619.63,-0.09933
1619.64,-0.09906
1619.65,-0.09917
1619.66,-0.09891
1619.67,-0.09972
1619.68,-0.09953
1619.69,-0.09882
1619.7,-0.09963
1619.71,-0.09977
1619.72,-0.09956
1619.73,-0.09969
1619.74,-0.09921
1619.75,-0.09894
1619.76,-0.09882
1619.77,-0.09909
1619.78,-0.09923
1619.79,-0.09916
1619.8,-0.09914
1619.81,-0.09955
1619.82,-0.09928
1619.83,-0.0997
1619.84,-0.09925
1619.85,-0.099
1619.86,-0.09884
1619.87,-0.0995
1619.88,-0.09893
1619.89,-0.09906
1619.9,-0.09921
1619.91,-0.09913
1619.92,-0.09933
1619.93,-0.09948
1619.94,-0.09965
1619.95,-0.09964
1619.96,-0.09911
1619.97,-0.0995
1619.98,-0.09881
1619.99,-0.09953
1620,-0.09969
1620.01,-0.09987
1620.02,-0.09963
1620.03,-0.09955
1620.04,-0.09971
1620.05,-0.1001
1620.06,-0.09973
1620.07,-0.09947
1620.08,-0.09968
1620.09,-0.09908
1620.1,-0.10031
1620.11,-0.09985
1620.12,-0.10031
1620.13,-0.09994
1620.14,-0.10018
1620.15,-0.10058
1620.16,-0.1011
1620.17,-0.10031
1620.18,-0.10031
1620.19,-0.10044
1620.2,-0.10016
1620.21,-0.10005
1620.22,-0.10074
1620.23,-0.10045
1620.24,-0.10056
1620.25,-0.10118
1620.26,-0.10155
1620.27,-0.10181
1620.28,-0.10154
1620.29,-0.10176
1620.3,-0.10182
1620.31,-0.10187
1620.32,-0.10205
1620.33,-0.10182
1620.34,-0.10169
1620.35,-0.10158
1620.36,-0.10142
1620.37,-0.10153
1620.38,-0.10171
1620.39,-0.10127
1620.4,-0.10144
1620.41,-0.10176
1620.42,-0.10099
1620.43,-0.10146
1620.44,-0.1017
1620.45,-0.10152
1620.46,-0.10174
1620.47,-0.10157
1620.48,-0.10203
1620.49,-0.10184
1620.5,-0.10175
1620.51,-0.10218
1620.52,-0.10181
1620.53,-0.10187
1620.54,-0.10128
1620.55,-0.1016
1620.56,-0.10178
1620.57,-0.10174
1620.58,-0.10183
1620.59,-0.10207
1620.6,-0.1022
1620.61,-0.10249
1620.62,-0.10222
1620.63,-0.10155
1620.64,-0.10158
1620.65,-0.10165
1620.66,-0.10181
1620.67,-0.10133
1620.68,-0.10167
1620.69,-0.10189
1620.7,-0.10185
1620.71,-0.10174
1620.72,-0.10222
1620.73,-0.10198
1620.74,-0.10184
1620.75,-0.10156
1620.76,-0.10106
1620.77,-0.10163
1620.78,-0.1019
1620.79,-0.10195
1620.8,-0.10195
1620.81,-0.10191
1620.82,-0.10176
1620.83,-0.10265
1620.84,-0.10189
1620.85,-0.10176
1620.86,-0.10201
1620.87,-0.10108
1620.88,-0.10167
1620.89,-0.10164
1620.9,-0.10164
1620.91,-0.10183
1620.92,-0.10214
1620.93,-0.10227
1620.94,-0.10241
1620.95,-0.10169
1620.96,-0.10189
1620.97,-0.10189
1620.98,-0.10158
1620.99,-0.10196
1621,-0.10176
1621.01,-0.10223
1621.02,-0.10201
1621.03,-0.10173
1621.04,-0.10212
1621.05,-0.10197
1621.06,-0.10215
1621.07,-0.10194
1621.08,-0.10183
1621.09,-0.10149
1621.1,-0.10169
1621.11,-0.10172
1621.12,-0.102
1621.13,-0.10189
1621.14,-0.10219
1621.15,-0.10162
1621.16,-0.10232
1621.17,-0.10226
1621.18,-0.10234
1621.19,-0.10214
1621.2,-0.10161
1621.21,-0.10184
1621.22,-0.10168
1621.23,-0.10218
1621.24,-0.10166
1621.25,-0.10094
1621.26,-0.10261
1621.27,-0.10251
1621.28,-0.1022
1621.29,-0.10209
1621.3,-0.1021
1621.31,-0.1018
1621.32,-0.10231
1621.33,-0.10132
1621.34,-0.10183
1621.35,-0.10213
1621.36,-0.10204
1621.37,-0.10185
1621.38,-0.10229
1621.39,-0.10221
1621.4,-0.10205
1621.41,-0.10154
1621.42,-0.10174
1621.43,-0.10176
1621.44,-0.1015
1621.45,-0.10179
1621.46,-0.10212
1621.47,-0.10182
1621.48,-0.10215
1621.49,-0.1018
1621.5,-0.10277
1621.51,-0.10145
1621.52,-0.10173
1621.53,-0.1021
1621.54,-0.10158
1621.55,-0.10154
1621.56,-0.10228
1621.57,-0.10164
1621.58,-0.10191
1621.59,-0.10237
1621.6,-0.10216
1621.61,-0.1021
1621.62,-0.1025
1621.63,-0.10208
1621.64,-0.10246
1621.65,-0.10213
1621.66,-0.10198
1621.67,-0.1022
1621.68,-0.10185
1621.69,-0.10239
1621.7,-0.10237
1621.71,-0.10225
1621.72,-0.10249
1621.73,-0.10241
1621.74,-0.10197
1621.75,-0.10219
1621.76,-0.1025
1621.77,-0.102
1621.78,-0.1022
1621.79,-0.10244
1621.8,-0.10235
1621.81,-0.10233
1621.82,-0.10249
1621.83,-0.10276
1621.84,-0.10252
1621.85,-0.10249
1621.86,-0.10211
1621.87,-0.10174
1621.88,-0.10198
1621.89,-0.10219
1621.9,-0.10214
1621.91,-0.10229
1621.92,-0.10253
1621.93,-0.10287
1621.94,-0.10257
1621.95,-0.10293
1621.96,-0.10272
1621.97,-0.10204
1621.98,-0.10244
1621.99,-0.10326
1622,-0.10128
1622.01,-0.10266
1622.02,-0.10264
1622.03,-0.10317
1622.04,-0.10272
1622.05,-0.10306
1622.06,-0.10297
1622.07,-0.10315
1622.08,-0.10277
1622.09,-0.10274
1622.1,-0.10261
1622.11,-0.10326
1622.12,-0.10253
1622.13,-0.10322
1622.14,-0.1032
1622.15,-0.10322
1622.16,-0.10376
1622.17,-0.10327
1622.18,-0.10314
1622.19,-0.10301
1622.2,-0.10284
1622.21,-0.10305
1622.22,-0.10268
1622.23,-0.10311
1622.24,-0.10331
1622.25,-0.10308
1622.26,-0.10306
1622.27,-0.10314
1622.28,-0.10366
1622.29,-0.10379
1622.3,-0.10305
1622.31,-0.10276
1622.32,-0.10258
1622.33,-0.10276
1622.34,-0.10283
1622.35,-0.10343
1622.36,-0.10332
1622.37,-0.10331
1622.38,-0.10305
1622.39,-0.10319
1622.4,-0.10329
1622.41,-0.10312
1622.42,-0.10255
1622.43,-0.10265
1622.44,-0.10271
1622.45,-0.10273
1622.46,-0.10226
1622.47,-0.10256
1622.48,-0.10197
1622.49,-0.10257
1622.5,-0.10278
1622.51,-0.10277
1622.52,-0.10195
1622.53,-0.1021
1622.54,-0.10142
1622.55,-0.10185
1622.56,-0.10162
1622.57,-0.10177
1622.58,-0.10203
1622.59,-0.10201
1622.6,-0.10228
1622.61,-0.10168
1622.62,-0.10241
1622.63,-0.10153
1622.64,-0.10197
1622.65,-0.10154
1622.66,-0.10162
1622.67,-0.10088
1622.68,-0.1011
1622.69,-0.10141
1622.7,-0.10089
1622.71,-0.10187
1622.72,-0.10151
1622.73,-0.10145
1622.74,-0.10113
1622.75,-0.10107
1622.76,-0.10093
1622.77,-0.1009
1622.78,-0.10102
1622.79,-0.10123
1622.8,-0.1018
1622.81,-0.10158
1622.82,-0.10132
1622.83,-0.1015
1622.84,-0.10155
1622.85,-0.10147
1622.86,-0.10085
1622.87,-0.10109
1622.88,-0.10089
1622.89,-0.10027
1622.9,-0.10074
1622.91,-0.10108
1622.92,-0.10154
1622.93,-0.1008
1622.94,-0.10198
1622.95,-0.10127
1622.96,-0.10126
1622.97,-0.10095
1622.98,-0.10116
1622.99,-0.10073
1623,-0.1009
1623.01,-0.10099
1623.02,-0.10094
1623.03,-0.1009
1623.04,-0.10142
1623.05,-0.10121
1623.06,-0.10166
1623.07,-0.10126
1623.08,-0.10117
1623.09,-0.1016
1623.1,-0.10092
1623.11,-0.10121
1623.12,-0.10143
1623.13,-0.10122
1623.14,-0.10179
1623.15,-0.10153
1623.16,-0.10202
1623.17,-0.10177
1623.18,-0.10143
1623.19,-0.10178
1623.2,-0.10146
1623.21,-0.10138
1623.22,-0.10142
1623.23,-0.10155
1623.24,-0.10159
1623.25,-0.10242
1623.26,-0.10213
1623.27,-0.1023
1623.28,-0.10211
1623.29,-0.10241
1623.3,-0.10254
1623.31,-0.10262
1623.32,-0.10219
1623.33,-0.10258
1623.34,-0.10254
1623.35,-0.10228
1623.36,-0.10263
1623.37,-0.10306
1623.38,-0.10279
1623.39,-0.10268
1623.4,-0.10351
1623.41,-0.10286
1623.42,-0.10281
1623.43,-0.10317
1623.44,-0.10277
1623.45,-0.10302
1623.46,-0.10259
1623.47,-0.10314
1623.48,-0.10301
1623.49,-0.1032
1623.5,-0.10367
1623.51,-0.10342
1623.52,-0.10329
1623.53,-0.10295
1623.54,-0.10295
1623.55,-0.10275
1623.56,-0.10281
1623.57,-0.10274
1623.58,-0.10318
1623.59,-0.10272
1623.6,-0.10329
1623.61,-0.10314
1623.62,-0.10302
1623.63,-0.10272
1623.64,-0.10273
1623.65,-0.10263
1623.66,-0.10198
1623.67,-0.10239
1623.68,-0.10253
1623.69,-0.10213
1623.7,-0.10178
1623.71,-0.10221
1623.72,-0.10242
1623.73,-0.10232
1623.74,-0.10264
1623.75,-0.1023
1623.76,-0.10166
1623.77,-0.10211
1623.78,-0.10184
1623.79,-0.10206
1623.8,-0.10208
1623.81,-0.1022
1623.82,-0.10252
1623.83,-0.10211
1623.84,-0.10231
1623.85,-0.10208
1623.86,-0.10179
1623.87,-0.10155
1623.88,-0.10131
1623.89,-0.10144
1623.9,-0.10111
1623.91,-0.10155
1623.92,-0.10125
1623.93,-0.10221
1623.94,-0.1017
1623.95,-0.10194
1623.96,-0.10215
1623.97,-0.10179
1623.98,-0.10185
1623.99,-0.10129
1624,-0.10136
1624.01,-0.10099
1624.02,-0.1015
1624.03,-0.10167
1624.04,-0.10114
1624.05,-0.10133
1624.06,-0.10164
1624.07,-0.10159
1624.08,-0.10139
1624.09,-0.10139
1624.1,-0.10118
1624.11,-0.10134
1624.12,-0.10142
1624.13,-0.10125
1624.14,-0.10132
1624.15,-0.10133
1624.16,-0.10235
1624.17,-0.10183
1624.18,-0.10221
1624.19,-0.10146
1624.2,-0.10162
1624.21,-0.10173
1624.22,-0.1018
1624.23,-0.10169
1624.24,-0.10127
1624.25,-0.10347
1624.26,-0.10115
1624.27,-0.1025
1624.28,-0.10243
1624.29,-0.10281
1624.3,-0.10249
1624.31,-0.10226
1624.32,-0.10182
1624.33,-0.10219
1624.34,-0.10201
1624.35,-0.10265
1624.36,-0.1021
1624.37,-0.10279
1624.38,-0.10271
1624.39,-0.10328
1624.4,-0.10299
1624.41,-0.10309
1624.42,-0.10287
1624.43,-0.10299
1624.44,-0.10285
1624.45,-0.10289
1624.46,-0.1032
1624.47,-0.10326
1624.48,-0.10374
1624.49,-0.10367
1624.5,-0.10419
1624.51,-0.1046
1624.52,-0.10429
1624.53,-0.10466
1624.54,-0.1045
1624.55,-0.10418
1624.56,-0.10399
1624.57,-0.10424
1624.58,-0.10435
1624.59,-0.1044
1624.6,-0.10469
1624.61,-0.10445
1624.62,-0.10517
1624.63,-0.10479
1624.64,-0.10467
1624.65,-0.10418
1624.66,-0.10411
1624.67,-0.10421
1624.68,-0.10423
1624.69,-0.10456
1624.7,-0.10403
1624.71,-0.1046
1624.72,-0.10469
1624.73,-0.10493
1624.74,-0.10501
1624.75,-0.10512
1624.76,-0.10445
1624.77,-0.10448
1624.78,-0.10455
1624.79,-0.10463
1624.8,-0.10475
1624.81,-0.10433
1624.82,-0.10473
1624.83,-0.10467
1624.84,-0.10469
1624.85,-0.10481
1624.86,-0.1041
1624.87,-0.10376
1624.88,-0.10451
1624.89,-0.10385
1624.9,-0.10366
1624.91,-0.10377
1624.92,-0.10421
1624.93,-0.10408
1624.94,-0.10454
1624.95,-0.10484
1624.96,-0.10452
1624.97,-0.10429
1624.98,-0.10475
1624.99,-0.10412
1625,-0.10415
1625.01,-0.10372
1625.02,-0.10431
1625.03,-0.10406
1625.04,-0.10444
1625.05,-0.10423
1625.06,-0.10404
1625.07,-0.10409
1625.08,-0.10408
1625.09,-0.10357
1625.1,-0.10374
1625.11,-0.10375
1625.12,-0.10366
1625.13,-0.10345
1625.14,-0.1037
1625.15,-0.10348
1625.16,-0.10381
1625.17,-0.10366
1625.18,-0.10433
1625.19,-0.10377
1625.2,-0.10438
1625.21,-0.10381
1625.22,-0.10356
1625.23,-0.10322
1625.24,-0.10332
1625.25,-0.10383
1625.26,-0.1035
1625.27,-0.10385
1625.28,-0.10385
1625.29,-0.10371
1625.3,-0.10356
1625.31,-0.10378
1625.32,-0.10366
1625.33,-0.10337
1625.34,-0.1034
1625.35,-0.10304
1625.36,-0.10282
1625.37,-0.10333
1625.38,-0.10351
1625.39,-0.10362
1625.4,-0.10385
1625.41,-0.10395
1625.42,-0.10401
1625.43,-0.1033
1625.44,-0.10377
1625.45,-0.10346
1625.46,-0.10341
1625.47,-0.10419
1625.48,-0.1039
1625.49,-0.10407
1625.5,-0.10412
1625.51,-0.10473
1625.52,-0.10465
1625.53,-0.10412
1625.54,-0.10461
1625.55,-0.10408
1625.56,-0.10399
1625.57,-0.10419
1625.58,-0.10415
1625.59,-0.10462
1625.6,-0.10456
1625.61,-0.10469
1625.62,-0.10503
1625.63,-0.10471
1625.64,-0.1054
1625.65,-0.10467
1625.66,-0.10466
1625.67,-0.10466
1625.68,-0.10454
1625.69,-0.10515
1625.7,-0.10501
1625.71,-0.10488
1625.72,-0.10585
1625.73,-0.10609
1625.74,-0.10546
1625.75,-0.10568
1625.76,-0.10583
1625.77,-0.10597
1625.78,-0.10519
1625.79,-0.10572
1625.8,-0.10532
1625.81,-0.10485
1625.82,-0.10579
1625.83,-0.10539
1625.84,-0.10614
1625.85,-0.10556
1625.86,-0.10572
1625.87,-0.10537
1625.88,-0.10534
1625.89,-0.10559
1625.9,-0.10533
1625.91,-0.10539
1625.92,-0.10538
1625.93,-0.10559
1625.94,-0.10628
1625.95,-0.10611
1625.96,-0.10614
1625.97,-0.10636
1625.98,-0.10621
1625.99,-0.1062
1626,-0.10619
1626.01,-0.10576
1626.02,-0.10566
1626.03,-0.10585
1626.04,-0.10557
1626.05,-0.10614
1626.06,-0.10664
1626.07,-0.10619
1626.08,-0.10596
1626.09,-0.10598
1626.1,-0.10568
1626.11,-0.10588
1626.12,-0.10526
1626.13,-0.10581
1626.14,-0.10598
1626.15,-0.10585
1626.16,-0.10554
1626.17,-0.10588
1626.18,-0.10623
1626.19,-0.1057
1626.2,-0.10617
1626.21,-0.10569
1626.22,-0.10536
1626.23,-0.10581
1626.24,-0.10498
1626.25,-0.10375
1626.26,-0.10574
1626.27,-0.10533
1626.28,-0.10478
1626.29,-0.10636
1626.3,-0.10556
1626.31,-0.10574
1626.32,-0.10494
1626.33,-0.10519
1626.34,-0.10491
1626.35,-0.1047
1626.36,-0.10503
1626.37,-0.10478
1626.38,-0.10518
1626.39,-0.10564
1626.4,-0.10541
1626.41,-0.1051
1626.42,-0.10454
1626.43,-0.10484
1626.44,-0.10453
1626.45,-0.10445
1626.46,-0.10433
1626.47,-0.1043
1626.48,-0.10396
1626.49,-0.10436
1626.5,-0.10403
1626.51,-0.10503
1626.52,-0.10448
1626.53,-0.10462
1626.54,-0.1047
1626.55,-0.1045
1626.56,-0.10408
1626.57,-0.10427
1626.58,-0.10505
1626.59,-0.10462
1626.6,-0.10508
1626.61,-0.10541
1626.62,-0.10494
1626.63,-0.10562
1626.64,-0.10589
1626.65,-0.10535
1626.66,-0.10487
1626.67,-0.10522
1626.68,-0.10503
1626.69,-0.10552
1626.7,-0.1048
1626.71,-0.10543
1626.72,-0.1051
1626.73,-0.10551
1626.74,-0.10513
1626.75,-0.10485
1626.76,-0.10496
1626.77,-0.10528
1626.78,-0.10439
1626.79,-0.10449
1626.8,-0.10437
1626.81,-0.10498
1626.82,-0.10492
1626.83,-0.10494
1626.84,-0.10492
1626.85,-0.10504
1626.86,-0.10507
1626.87,-0.10467
1626.88,-0.1045
1626.89,-0.10536
1626.9,-0.10517
1626.91,-0.10514
1626.92,-0.10463
1626.93,-0.10541
1626.94,-0.10557
1626.95,-0.10597
1626.96,-0.10599
1626.97,-0.10595
1626.98,-0.10551
1626.99,-0.10522
1627,-0.10504
1627.01,-0.10469
1627.02,-0.10462
1627.03,-0.10493
1627.04,-0.1049
1627.05,-0.10488
1627.06,-0.10502
1627.07,-0.10519
1627.08,-0.10505
1627.09,-0.10522
1627.1,-0.10592
1627.11,-0.10455
1627.12,-0.10512
1627.13,-0.10527
1627.14,-0.10511
1627.15,-0.10574
1627.16,-0.10586
1627.17,-0.10626
1627.18,-0.10608
1627.19,-0.1064
1627.2,-0.10632
1627.21,-0.10565
1627.22,-0.10596
1627.23,-0.10544
1627.24,-0.10534
1627.25,-0.10557
1627.26,-0.10587
1627.27,-0.10593
1627.28,-0.1055
1627.29,-0.10624
1627.3,-0.10607
1627.31,-0.10592
1627.32,-0.10603
1627.33,-0.10622
1627.34,-0.10532
1627.35,-0.10565
1627.36,-0.10574
1627.37,-0.10593
1627.38,-0.10631
1627.39,-0.10595
1627.4,-0.10646
1627.41,-0.10565
1627.42,-0.10616
1627.43,-0.10575
1627.44,-0.10526
1627.45,-0.10569
1627.46,-0.10551
1627.47,-0.10518
1627.48,-0.10559
1627.49,-0.10541
1627.5,-0.10605
1627.51,-0.1058
1627.52,-0.10557
1627.53,-0.10562
1627.54,-0.10547
1627.55,-0.10526
1627.56,-0.10521
1627.57,-0.10514
1627.58,-0.10473
1627.59,-0.10532
1627.6,-0.10532
1627.61,-0.10564
1627.62,-0.10563
1627.63,-0.10558
1627.64,-0.10544
1627.65,-0.10574
1627.66,-0.1054
1627.67,-0.10536
1627.68,-0.1054
1627.69,-0.10483
1627.7,-0.10516
1627.71,-0.10514
1627.72,-0.1053
1627.73,-0.10518
1627.74,-0.10655
1627.75,-0.10596
1627.76,-0.10578
1627.77,-0.1058
1627.78,-0.10572
1627.79,-0.10554
1627.8,-0.10557
1627.81,-0.1056
1627.82,-0.10586
1627.83,-0.10597
1627.84,-0.10579
1627.85,-0.10628
1627.86,-0.1062
1627.87,-0.10591
1627.88,-0.10586
1627.89,-0.10614
1627.9,-0.10557
1627.91,-0.10584
1627.92,-0.10585
1627.93,-0.10605
1627.94,-0.10603
1627.95,-0.10671
1627.96,-0.10628
1627.97,-0.1065
1627.98,-0.10612
1627.99,-0.10622
1628,-0.10618
1628.01,-0.10591
1628.02,-0.10556
1628.03,-0.10565
1628.04,-0.10535
1628.05,-0.10625
1628.06,-0.10631
1628.07,-0.10688
1628.08,-0.10707
1628.09,-0.10652
1628.1,-0.10686
1628.11,-0.10607
1628.12,-0.10642
1628.13,-0.10587
1628.14,-0.10626
1628.15,-0.10613
1628.16,-0.10637
1628.17,-0.10702
1628.18,-0.10707
1628.19,-0.10678
1628.2,-0.10669
1628.21,-0.10732
1628.22,-0.11373
1628.23,-0.1259
1628.24,-0.15502
1628.25,-0.20182
1628.26,-0.26631
1628.27,-0.34082
1628.28,-0.41738
1628.29,-0.48599
1628.3,-0.52835
1628.31,-0.54445
1628.32,-0.52138
1628.33,-0.45989
1628.34,-0.38016
1628.35,-0.30253
1628.36,-0.23465
1628.37,-0.18099
1628.38,-0.14538
1628.39,-0.12393
1628.4,-0.11458
1628.41,-0.11
1628.42,-0.10766
1628.43,-0.1068
1628.44,-0.10657
1628.45,-0.10637
1628.46,-0.10662
1628.47,-0.10649
1628.48,-0.10666
1628.49,-0.10668
1628.5,-0.10697
1628.51,-0.10695
1628.52,-0.10687
1628.53,-0.10706
1628.54,-0.10657
1628.55,-0.10664
1628.56,-0.10707
1628.57,-0.10731
1628.58,-0.10712
1628.59,-0.10702
1628.6,-0.10688
1628.61,-0.10729
1628.62,-0.10774
1628.63,-0.10734
1628.64,-0.10714
1628.65,-0.10695
1628.66,-0.10686
1628.67,-0.10648
1628.68,-0.1069
1628.69,-0.10666
1628.7,-0.10642
1628.71,-0.10633
1628.72,-0.10632
1628.73,-0.10723
1628.74,-0.10607
1628.75,-0.1081
1628.76,-0.1059
1628.77,-0.10654
1628.78,-0.10605
1628.79,-0.10616
1628.8,-0.10601
1628.81,-0.10594
1628.82,-0.10636
1628.83,-0.1067
1628.84,-0.10648
1628.85,-0.10694
1628.86,-0.10653
1628.87,-0.10703
1628.88,-0.10669
1628.89,-0.1067
1628.9,-0.10607
1628.91,-0.10627
1628.92,-0.10597
1628.93,-0.10701
1628.94,-0.10684
1628.95,-0.10719
1628.96,-0.10756
1628.97,-0.10788
1628.98,-0.10739
1628.99,-0.10769
1629,-0.10744
1629.01,-0.10739
1629.02,-0.10744
1629.03,-0.10731
1629.04,-0.10734
1629.05,-0.10776
1629.06,-0.10753
1629.07,-0.10841
1629.08,-0.1078
1629.09,-0.10755
1629.1,-0.10824
1629.11,-0.10748
1629.12,-0.10798
1629.13,-0.10834
1629.14,-0.10719
1629.15,-0.1077
1629.16,-0.10799
1629.17,-0.10789
1629.18,-0.10838
1629.19,-0.10819
1629.2,-0.10877
1629.21,-0.10903
1629.22,-0.1082
1629.23,-0.10911
1629.24,-0.10827
1629.25,-0.10869
1629.26,-0.10813
1629.27,-0.10937
1629.28,-0.10939
1629.29,-0.10931
1629.3,-0.11029
1629.31,-0.10997
1629.32,-0.11023
1629.33,-0.10996
1629.34,-0.10938
1629.35,-0.10966
1629.36,-0.109
1629.37,-0.10961
1629.38,-0.10897
1629.39,-0.10937
1629.4,-0.10935
1629.41,-0.10913
1629.42,-0.10946
1629.43,-0.10936
1629.44,-0.10933
1629.45,-0.10887
1629.46,-0.10993
1629.47,-0.10886
1629.48,-0.10958
1629.49,-0.10973
1629.5,-0.10998
1629.51,-0.11016
1629.52,-0.11039
1629.53,-0.11061
1629.54,-0.11011
1629.55,-0.11023
1629.56,-0.10994
1629.57,-0.11
1629.58,-0.10968
1629.59,-0.10982
1629.6,-0.10959
1629.61,-0.10931
1629.62,-0.10965
1629.63,-0.10969
1629.64,-0.10967
1629.65,-0.10976
1629.66,-0.1098
1629.67,-0.10948
1629.68,-0.10943
1629.69,-0.10916
1629.7,-0.10876
1629.71,-0.10929
1629.72,-0.10921
1629.73,-0.10939
1629.74,-0.10969
1629.75,-0.11018
1629.76,-0.1095
1629.77,-0.10899
1629.78,-0.11027
1629.79,-0.10922
1629.8,-0.10913
1629.81,-0.10926
1629.82,-0.10943
1629.83,-0.10961
1629.84,-0.10956
1629.85,-0.10997
1629.86,-0.10975
1629.87,-0.10946
1629.88,-0.10945
1629.89,-0.10937
1629.9,-0.10889
1629.91,-0.10894
1629.92,-0.10874
1629.93,-0.10841
1629.94,-0.10857
1629.95,-0.1089
1629.96,-0.10866
1629.97,-0.1089
1629.98,-0.10835
1629.99,-0.1089
1630,-0.10846
1630.01,-0.1081
1630.02,-0.10806
1630.03,-0.10796
1630.04,-0.10848
1630.05,-0.10875
1630.06,-0.10808
1630.07,-0.10914
1630.08,-0.10887
1630.09,-0.109
1630.1,-0.10898
1630.11,-0.10876
1630.12,-0.10893
1630.13,-0.10864
1630.14,-0.10829
1630.15,-0.1083
1630.16,-0.10872
1630.17,-0.10839
1630.18,-0.10881
1630.19,-0.10872
1630.2,-0.10787
1630.21,-0.10825
1630.22,-0.10836
1630.23,-0.10853
1630.24,-0.10762
1630.25,-0.10846
1630.26,-0.10744
1630.27,-0.10789
1630.28,-0.10851
1630.29,-0.1089
1630.3,-0.1085
1630.31,-0.10892
1630.32,-0.10812
1630.33,-0.10889
1630.34,-0.10838
1630.35,-0.10889
1630.36,-0.10903
1630.37,-0.10867
1630.38,-0.10916
1630.39,-0.10895
1630.4,-0.10952
1630.41,-0.10962
1630.42,-0.11015
1630.43,-0.10938
1630.44,-0.10952
1630.45,-0.10934
1630.46,-0.10929
1630.47,-0.10916
1630.48,-0.10982
1630.49,-0.10939
1630.5,-0.10975
1630.51,-0.10936
1630.52,-0.10966
1630.53,-0.10945
1630.54,-0.10951
1630.55,-0.10977
1630.56,-0.10946
1630.57,-0.10982
1630.58,-0.10977
1630.59,-0.11068
1630.6,-0.11058
1630.61,-0.11093
1630.62,-0.11243
1630.63,-0.1193
1630.64,-0.13748
1630.65,-0.17925
1630.66,-0.25576
1630.67,-0.37079
1630.68,-0.51372
1630.69,-0.68019
1630.7,-0.82833
1630.71,-0.92781
1630.72,-0.96887
1630.73,-0.94597
1630.74,-0.86097
1630.75,-0.72858
1630.76,-0.58337
1630.77,-0.44325
1630.78,-0.32286
1630.79,-0.22841
1630.8,-0.16682
1630.81,-0.13236
1630.82,-0.11821
1630.83,-0.11251
1630.84,-0.11208
1630.85,-0.11157
1630.86,-0.11174
1630.87,-0.1119
1630.88,-0.11186
1630.89,-0.11156
1630.9,-0.11142
1630.91,-0.11108
1630.92,-0.11062
1630.93,-0.11079
1630.94,-0.11062
1630.95,-0.11063
1630.96,-0.11073
1630.97,-0.11044
1630.98,-0.1103
1630.99,-0.11021
1631,-0.11048
1631.01,-0.11037
1631.02,-0.11061
1631.03,-0.11038
1631.04,-0.10991
1631.05,-0.11024
1631.06,-0.11074
1631.07,-0.11107
1631.08,-0.11113
1631.09,-0.11126
1631.1,-0.11179
1631.11,-0.11199
1631.12,-0.11153
1631.13,-0.11165
1631.14,-0.11155
1631.15,-0.11115
1631.16,-0.11146
1631.17,-0.11122
1631.18,-0.11105
1631.19,-0.11073
1631.2,-0.11141
1631.21,-0.11077
1631.22,-0.11041
1631.23,-0.11063
1631.24,-0.11112
1631.25,-0.11097
1631.26,-0.11083
1631.27,-0.11082
1631.28,-0.11088
1631.29,-0.11048
1631.3,-0.11134
1631.31,-0.10981
1631.32,-0.11028
1631.33,-0.10985
1631.34,-0.10953
1631.35,-0.10936
1631.36,-0.10938
1631.37,-0.1084
1631.38,-0.109
1631.39,-0.10926
1631.4,-0.10939
1631.41,-0.1093
1631.42,-0.10948
1631.43,-0.1091
1631.44,-0.10955
1631.45,-0.10955
1631.46,-0.11018
1631.47,-0.11029
1631.48,-0.11029
1631.49,-0.11093
1631.5,-0.11035
1631.51,-0.11158
1631.52,-0.11134
1631.53,-0.11148
1631.54,-0.11122
1631.55,-0.11163
1631.56,-0.11089
1631.57,-0.11164
1631.58,-0.11129
1631.59,-0.11107
1631.6,-0.1109
1631.61,-0.11066
1631.62,-0.11026
1631.63,-0.11054
1631.64,-0.10985
1631.65,-0.11017
1631.66,-0.10927
1631.67,-0.10981
1631.68,-0.10903
1631.69,-0.10903
1631.7,-0.10939
1631.71,-0.10912
1631.72,-0.10922
1631.73,-0.10889
1631.74,-0.11103
1631.75,-0.11012
1631.76,-0.10889
1631.77,-0.11035
1631.78,-0.11021
1631.79,-0.10995
1631.8,-0.11025
1631.81,-0.11112
1631.82,-0.11057
1631.83,-0.1115
1631.84,-0.11187
1631.85,-0.11257
1631.86,-0.11244
1631.87,-0.11244
1631.88,-0.11225
1631.89,-0.11188
1631.9,-0.11134
1631.91,-0.11133
1631.92,-0.11052
1631.93,-0.11047
1631.94,-0.10999
1631.95,-0.11032
1631.96,-0.11019
1631.97,-0.10967
1631.98,-0.11045
1631.99,-0.11001
1632,-0.11032
1632.01,-0.11017
1632.02,-0.10995
1632.03,-0.1102
1632.04,-0.11012
1632.05,-0.11122
1632.06,-0.11114
1632.07,-0.11182
1632.08,-0.11277
1632.09,-0.1127
1632.1,-0.1128
1632.11,-0.11242
1632.12,-0.11197
1632.13,-0.11148
1632.14,-0.11117
1632.15,-0.11095
1632.16,-0.11059
1632.17,-0.11051
1632.18,-0.11056
1632.19,-0.11006
1632.2,-0.11036
1632.21,-0.11054
1632.22,-0.11068
1632.23,-0.11021
1632.24,-0.11118
1632.25,-0.11064
1632.26,-0.11107
1632.27,-0.11183
1632.28,-0.11149
1632.29,-0.11245
1632.3,-0.11246
1632.31,-0.1127
1632.32,-0.11209
1632.33,-0.11255
1632.34,-0.11223
1632.35,-0.11264
1632.36,-0.11248
1632.37,-0.11268
1632.38,-0.1127
1632.39,-0.11308
1632.4,-0.1137
1632.41,-0.11256
1632.42,-0.11279
1632.43,-0.11215
1632.44,-0.11203
1632.45,-0.11159
1632.46,-0.11158
1632.47,-0.11096
1632.48,-0.1107
1632.49,-0.11061
1632.5,-0.11041
1632.51,-0.11043
1632.52,-0.11126
1632.53,-0.11087
1632.54,-0.11061
1632.55,-0.1109
1632.56,-0.11119
1632.57,-0.11078
1632.58,-0.11081
1632.59,-0.11035
1632.6,-0.11065
1632.61,-0.11105
1632.62,-0.11071
1632.63,-0.11087
1632.64,-0.11135
1632.65,-0.11149
1632.66,-0.11102
1632.67,-0.11114
1632.68,-0.11118
1632.69,-0.11107
1632.7,-0.11098
1632.71,-0.11065
1632.72,-0.1108
1632.73,-0.11073
1632.74,-0.11114
1632.75,-0.11071
1632.76,-0.11089
1632.77,-0.11106
1632.78,-0.11086
1632.79,-0.11069
1632.8,-0.1106
1632.81,-0.10966
1632.82,-0.11071
1632.83,-0.1109
1632.84,-0.11112
1632.85,-0.111
1632.86,-0.11121
1632.87,-0.11131
1632.88,-0.11145
1632.89,-0.11175
1632.9,-0.11156
1632.91,-0.11298
1632.92,-0.11138
1632.93,-0.11161
1632.94,-0.11096
1632.95,-0.11169
1632.96,-0.11131
1632.97,-0.11181
1632.98,-0.11135
1632.99,-0.11409
1633,-0.1243
1633.01,-0.14919
1633.02,-0.19655
1633.03,-0.27517
1633.04,-0.38212
1633.05,-0.51206
1633.06,-0.63543
1633.07,-0.74212
1633.08,-0.80988
1633.09,-0.82221
1633.1,-0.77745
1633.11,-0.6915
1633.12,-0.57846
1633.13,-0.45429
1633.14,-0.3373
1633.15,-0.24593
1633.16,-0.18128
1633.17,-0.14347
1633.18,-0.12343
1633.19,-0.11496
1633.2,-0.11121
1633.21,-0.11066
1633.22,-0.1104
1633.23,-0.11011
1633.24,-0.11038
1633.25,-0.11019
1633.26,-0.11043
1633.27,-0.11042
1633.28,-0.1096
1633.29,-0.11033
1633.3,-0.11046
1633.31,-0.11085
1633.32,-0.1113
1633.33,-0.11162
1633.34,-0.11175
1633.35,-0.11144
1633.36,-0.11232
1633.37,-0.11242
1633.38,-0.11249
1633.39,-0.11262
1633.4,-0.1127
1633.41,-0.11297
1633.42,-0.11257
1633.43,-0.11279
1633.44,-0.11238
1633.45,-0.11214
1633.46,-0.11282
1633.47,-0.11248
1633.48,-0.11242
1633.49,-0.1121
1633.5,-0.11338
1633.51,-0.11285
1633.52,-0.11349
1633.53,-0.11336
1633.54,-0.11361
1633.55,-0.11309
1633.56,-0.11297
1633.57,-0.11253
1633.58,-0.11232
1633.59,-0.11249
1633.6,-0.11221
1633.61,-0.11174
1633.62,-0.11178
1633.63,-0.11159
1633.64,-0.11196
1633.65,-0.11199
1633.66,-0.11249
1633.67,-0.11206
1633.68,-0.11231
1633.69,-0.11219
1633.7,-0.11268
1633.71,-0.11251
1633.72,-0.11329
1633.73,-0.11264
1633.74,-0.11374
1633.75,-0.11404
1633.76,-0.11438
1633.77,-0.11443
1633.78,-0.11424
1633.79,-0.11476
1633.8,-0.11447
1633.81,-0.11425
1633.82,-0.11432
1633.83,-0.11444
1633.84,-0.11387
1633.85,-0.1143
1633.86,-0.11394
1633.87,-0.11338
1633.88,-0.11382
1633.89,-0.11303
1633.9,-0.1126
1633.91,-0.11271
1633.92,-0.11228
1633.93,-0.1118
1633.94,-0.11166
1633.95,-0.11191
1633.96,-0.11113
1633.97,-0.112
1633.98,-0.11173
1633.99,-0.11206
1634,-0.11181
1634.01,-0.11144
1634.02,-0.11152
1634.03,-0.11126
1634.04,-0.11124
1634.05,-0.11142
1634.06,-0.1121
1634.07,-0.11243
1634.08,-0.11259
1634.09,-0.11315
1634.1,-0.11293
1634.11,-0.11391
1634.12,-0.11329
1634.13,-0.1137
1634.14,-0.11367
1634.15,-0.11347
1634.16,-0.1128
1634.17,-0.11213
1634.18,-0.11143
1634.19,-0.11166
1634.2,-0.11097
1634.21,-0.11096
1634.22,-0.11059
1634.23,-0.11118
1634.24,-0.11089
1634.25,-0.11061
1634.26,-0.10911
1634.27,-0.11028
1634.28,-0.11023
1634.29,-0.11047
1634.3,-0.11046
1634.31,-0.11133
1634.32,-0.11116
1634.33,-0.11154
1634.34,-0.1125
1634.35,-0.11241
1634.36,-0.11266
1634.37,-0.11222
1634.38,-0.11236
1634.39,-0.11144
1634.4,-0.11184
1634.41,-0.11101
1634.42,-0.1113
1634.43,-0.11093
1634.44,-0.11066
1634.45,-0.11032
1634.46,-0.11025
1634.47,-0.11011
1634.48,-0.11034
1634.49,-0.10987
1634.5,-0.11038
1634.51,-0.11047
1634.52,-0.11086
1634.53,-0.11059
1634.54,-0.11128
1634.55,-0.11145
1634.56,-0.11155
1634.57,-0.11161
1634.58,-0.11107
1634.59,-0.11117
1634.6,-0.1111
1634.61,-0.1108
1634.62,-0.11098
1634.63,-0.11104
1634.64,-0.11135
1634.65,-0.1116
1634.66,-0.1117
1634.67,-0.11131
1634.68,-0.11155
1634.69,-0.11134
1634.7,-0.11088
1634.71,-0.11089
1634.72,-0.11099
1634.73,-0.10979
1634.74,-0.1126
1634.75,-0.11007
1634.76,-0.11075
1634.77,-0.11115
1634.78,-0.11094
1634.79,-0.11076
1634.8,-0.11095
1634.81,-0.11133
1634.82,-0.11106
1634.83,-0.11091
1634.84,-0.11144
1634.85,-0.11112
1634.86,-0.11158
1634.87,-0.11137
1634.88,-0.11191
1634.89,-0.11123
1634.9,-0.11181
1634.91,-0.11173
1634.92,-0.11193
1634.93,-0.11264
1634.94,-0.1125
1634.95,-0.11258
1634.96,-0.1131
1634.97,-0.11259
1634.98,-0.11315
1634.99,-0.11316
1635,-0.11326
1635.01,-0.11351
1635.02,-0.11359
1635.03,-0.11344
1635.04,-0.11305
1635.05,-0.11367
1635.06,-0.1132
1635.07,-0.11381
1635.08,-0.11337
1635.09,-0.11332
1635.1,-0.11333
1635.11,-0.11307
1635.12,-0.11327
1635.13,-0.11366
1635.14,-0.1127
1635.15,-0.11341
1635.16,-0.11302
1635.17,-0.11329
1635.18,-0.11338
1635.19,-0.11338
1635.2,-0.11325
1635.21,-0.11375
1635.22,-0.11338
1635.23,-0.11381
1635.24,-0.11358
1635.25,-0.11343
1635.26,-0.11369
1635.27,-0.11332
1635.28,-0.11413
1635.29,-0.11397
1635.3,-0.11405
1635.31,-0.11413
1635.32,-0.11409
1635.33,-0.11343
1635.34,-0.11343
1635.35,-0.11362
1635.36,-0.11343
1635.37,-0.11252
1635.38,-0.11289
1635.39,-0.11312
1635.4,-0.11313
1635.41,-0.11263
1635.42,-0.11261
1635.43,-0.11233
1635.44,-0.11273
1635.45,-0.11205
1635.46,-0.11264
1635.47,-0.11222
1635.48,-0.1132
1635.49,-0.11332
1635.5,-0.11425
1635.51,-0.1149
1635.52,-0.11374
1635.53,-0.11808
1635.54,-0.14719
1635.55,-0.23959
1635.56,-0.4218
1635.57,-0.73998
1635.58,-1.148
1635.59,-1.61113
1635.6,-2.08183
1635.61,-2.48736
1635.62,-2.75035
1635.63,-2.8666
1635.64,-2.81246
1635.65,-2.60255
1635.66,-2.26616
1635.67,-1.83352
1635.68,-1.37052
1635.69,-0.92495
1635.7,-0.59167
1635.71,-0.35951
1635.72,-0.22791
1635.73,-0.16213
1635.74,-0.13193
1635.75,-0.11647
1635.76,-0.1133
1635.77,-0.11276
1635.78,-0.11314
1635.79,-0.11264
1635.8,-0.11202
1635.81,-0.1124
1635.82,-0.11126
1635.83,-0.11134
1635.84,-0.1113
1635.85,-0.11097
1635.86,-0.11102
1635.87,-0.11109
1635.88,-0.11094
1635.89,-0.11163
1635.9,-0.11098
1635.91,-0.11131
1635.92,-0.11136
1635.93,-0.11178
1635.94,-0.11115
1635.95,-0.11129
1635.96,-0.11147
1635.97,-0.11171
1635.98,-0.11236
1635.99,-0.11265
1636,-0.11297
1636.01,-0.11285
1636.02,-0.11373
1636.03,-0.11378
1636.04,-0.11346
1636.05,-0.11353
1636.06,-0.11291
1636.07,-0.11359
1636.08,-0.11307
1636.09,-0.11274
1636.1,-0.11302
1636.11,-0.11347
1636.12,-0.11335
1636.13,-0.11315
1636.14,-0.11354
1636.15,-0.11405
1636.16,-0.11403
1636.17,-0.11449
1636.18,-0.11462
1636.19,-0.11387
1636.2,-0.11449
1636.21,-0.11351
1636.22,-0.11369
1636.23,-0.11333
1636.24,-0.11431
1636.25,-0.1128
1636.26,-0.11337
1636.27,-0.1129
1636.28,-0.11335
1636.29,-0.11367
1636.3,-0.11351
1636.31,-0.11374
1636.32,-0.11361
1636.33,-0.11407
1636.34,-0.11353
1636.35,-0.11396
1636.36,-0.1144
1636.37,-0.11488
1636.38,-0.11484
1636.39,-0.11556
1636.4,-0.11616
1636.41,-0.11609
1636.42,-0.11601
1636.43,-0.11648
1636.44,-0.11631
1636.45,-0.11675
1636.46,-0.11627
1636.47,-0.11682
1636.48,-0.11646
1636.49,-0.11623
1636.5,-0.11609
1636.51,-0.11614
1636.52,-0.11597
1636.53,-0.11523
1636.54,-0.11496
1636.55,-0.11487
1636.56,-0.11426
1636.57,-0.11434
1636.58,-0.11457
1636.59,-0.11382
1636.6,-0.11411
1636.61,-0.11354
1636.62,-0.11376
1636.63,-0.11424
1636.64,-0.11397
1636.65,-0.11406
1636.66,-0.11394
1636.67,-0.11406
1636.68,-0.11416
1636.69,-0.11413
1636.7,-0.11511
1636.71,-0.11478
1636.72,-0.11513
1636.73,-0.11475
1636.74,-0.11722
1636.75,-0.11601
1636.76,-0.11641
1636.77,-0.11632
1636.78,-0.11628
1636.79,-0.11588
1636.8,-0.11517
1636.81,-0.11502
1636.82,-0.1148
1636.83,-0.1141
1636.84,-0.11371
1636.85,-0.11337
1636.86,-0.11304
1636.87,-0.11291
1636.88,-0.11288
1636.89,-0.11332
1636.9,-0.11314
1636.91,-0.11318
1636.92,-0.11284
1636.93,-0.11341
1636.94,-0.11335
1636.95,-0.11454
1636.96,-0.11435
1636.97,-0.11512
1636.98,-0.11541
1636.99,-0.11529
1637,-0.11527
1637.01,-0.11574
1637.02,-0.11536
1637.03,-0.11476
1637.04,-0.11431
1637.05,-0.11389
1637.06,-0.11354
1637.07,-0.11273
1637.08,-0.11274
1637.09,-0.11249
1637.1,-0.1124
1637.11,-0.11237
1637.12,-0.11172
1637.13,-0.11261
1637.14,-0.11266
1637.15,-0.11275
1637.16,-0.11296
1637.17,-0.11306
1637.18,-0.11343
1637.19,-0.1141
1637.2,-0.11386
1637.21,-0.11458
1637.22,-0.11431
1637.23,-0.11402
1637.24,-0.11445
1637.25,-0.11395
1637.26,-0.11388
1637.27,-0.11442
1637.28,-0.11486
1637.29,-0.115
1637.3,-0.11515
1637.31,-0.11512
1637.32,-0.11439
1637.33,-0.11481
1637.34,-0.11409
1637.35,-0.11464
1637.36,-0.11332
1637.37,-0.11316
1637.38,-0.11311
1637.39,-0.11291
1637.4,-0.11292
1637.41,-0.11269
1637.42,-0.11294
1637.43,-0.11299
1637.44,-0.11224
1637.45,-0.11258
1637.46,-0.11304
1637.47,-0.11218
1637.48,-0.11243
1637.49,-0.11452
1637.5,-0.11251
1637.51,-0.11351
1637.52,-0.11321
1637.53,-0.11379
1637.54,-0.11385
1637.55,-0.11435
1637.56,-0.11459
1637.57,-0.1146
1637.58,-0.11465
1637.59,-0.11477
1637.6,-0.1145
1637.61,-0.11423
1637.62,-0.11431
1637.63,-0.11442
1637.64,-0.11413
1637.65,-0.1144
1637.66,-0.11447
1637.67,-0.11441
1637.68,-0.1139
1637.69,-0.11375
1637.7,-0.1136
1637.71,-0.11346
1637.72,-0.11396
1637.73,-0.11363
1637.74,-0.11385
1637.75,-0.11463
1637.76,-0.11597
1637.77,-0.1151
1637.78,-0.11491
1637.79,-0.11745
1637.8,-0.13757
1637.81,-0.20675
1637.82,-0.34416
1637.83,-0.58108
1637.84,-0.88966
1637.85,-1.31857
1637.86,-1.76274
1637.87,-2.16306
1637.88,-2.48994
1637.89,-2.68654
1637.9,-2.71366
1637.91,-2.55298
1637.92,-2.25787
1637.93,-1.86724
1637.94,-1.43737
1637.95,-1.03545
1637.96,-0.70105
1637.97,-0.45125
1637.98,-0.27932
1637.99,-0.181
1638,-0.13713
1638.01,-0.12024
1638.02,-0.11567
1638.03,-0.11471
1638.04,-0.11497
1638.05,-0.1149
1638.06,-0.11526
1638.07,-0.11512
1638.08,-0.11564
1638.09,-0.11509
1638.1,-0.11514
1638.11,-0.11508
1638.12,-0.11591
1638.13,-0.11521
1638.14,-0.11479
1638.15,-0.11501
1638.16,-0.11483
1638.17,-0.11508
1638.18,-0.11403
1638.19,-0.11395
1638.2,-0.11378
1638.21,-0.11391
1638.22,-0.11381
1638.23,-0.11395
1638.24,-0.11214
1638.25,-0.11398
1638.26,-0.11413
1638.27,-0.1144
1638.28,-0.11451
1638.29,-0.11519
1638.3,-0.11506
1638.31,-0.11586
1638.32,-0.11653
1638.33,-0.11598
1638.34,-0.1164
1638.35,-0.11651
1638.36,-0.11548
1638.37,-0.11584
1638.38,-0.11487
1638.39,-0.11501
1638.4,-0.11431
1638.41,-0.11426
1638.42,-0.11437
1638.43,-0.11442
1638.44,-0.11569
1638.45,-0.1156
1638.46,-0.11598
1638.47,-0.11651
1638.48,-0.11591
1638.49,-0.1155
1638.5,-0.1151
1638.51,-0.11434
1638.52,-0.11417
1638.53,-0.11498
1638.54,-0.11492
1638.55,-0.1156
1638.56,-0.11536
1638.57,-0.11608
1638.58,-0.11664
1638.59,-0.11714
1638.6,-0.11723
1638.61,-0.11718
1638.62,-0.11665
1638.63,-0.11696
1638.64,-0.11572
1638.65,-0.11581
1638.66,-0.11581
1638.67,-0.11595
1638.68,-0.11632
1638.69,-0.11647
1638.7,-0.11688
1638.71,-0.11755
1638.72,-0.11779
1638.73,-0.11814
1638.74,-0.11734
1638.75,-0.11737
1638.76,-0.11688
1638.77,-0.11662
1638.78,-0.11603
1638.79,-0.11535
1638.8,-0.11521
1638.81,-0.11452
1638.82,-0.11464
1638.83,-0.1142
1638.84,-0.11465
1638.85,-0.11402
1638.86,-0.11432
1638.87,-0.11377
1638.88,-0.11389
1638.89,-0.11434
1638.9,-0.11436
1638.91,-0.11415
1638.92,-0.11478
1638.93,-0.11478
1638.94,-0.11567
1638.95,-0.11612
1638.96,-0.11653
1638.97,-0.11699
1638.98,-0.11705
1638.99,-0.11719
1639,-0.11767
1639.01,-0.11762
1639.02,-0.11735
1639.03,-0.11756
1639.04,-0.11782
1639.05,-0.11796
1639.06,-0.11736
1639.07,-0.11739
1639.08,-0.11648
1639.09,-0.11617
1639.1,-0.11532
1639.11,-0.11445
1639.12,-0.11394
1639.13,-0.11408
1639.14,-0.11338
1639.15,-0.11371
1639.16,-0.11318
1639.17,-0.11348
1639.18,-0.11318
1639.19,-0.11332
1639.2,-0.11344
1639.21,-0.11321
1639.22,-0.11297
1639.23,-0.11347
1639.24,-0.11364
1639.25,-0.1143
1639.26,-0.11396
1639.27,-0.11522
1639.28,-0.11571
1639.29,-0.11657
1639.3,-0.11722
1639.31,-0.1182
1639.32,-0.11866
1639.33,-0.11969
1639.34,-0.11919
1639.35,-0.12004
1639.36,-0.11906
1639.37,-0.11831
1639.38,-0.11751
1639.39,-0.11663
1639.4,-0.11649
1639.41,-0.11518
1639.42,-0.11476
1639.43,-0.11491
1639.44,-0.11388
1639.45,-0.11429
1639.46,-0.11399
1639.47,-0.11437
1639.48,-0.11424
1639.49,-0.11466
1639.5,-0.11469
1639.51,-0.11541
1639.52,-0.11609
1639.53,-0.11645
1639.54,-0.11767
1639.55,-0.11844
1639.56,-0.11873
1639.57,-0.11931
1639.58,-0.12011
1639.59,-0.11966
1639.6,-0.11919
1639.61,-0.11872
1639.62,-0.11798
1639.63,-0.11682
1639.64,-0.11611
1639.65,-0.11569
1639.66,-0.1149
1639.67,-0.11527
1639.68,-0.11542
1639.69,-0.11497
1639.7,-0.11527
1639.71,-0.11561
1639.72,-0.1155
1639.73,-0.11671
1639.74,-0.11654
1639.75,-0.11762
1639.76,-0.11851
1639.77,-0.11833
1639.78,-0.11807
1639.79,-0.11846
1639.8,-0.11875
1639.81,-0.11851
1639.82,-0.11823
1639.83,-0.11814
1639.84,-0.11839
1639.85,-0.11869
1639.86,-0.11844
1639.87,-0.11968
1639.88,-0.11962
1639.89,-0.11889
1639.9,-0.11894
1639.91,-0.11913
1639.92,-0.11861
1639.93,-0.11803
1639.94,-0.11814
1639.95,-0.11765
1639.96,-0.11808
1639.97,-0.11723
1639.98,-0.11779
1639.99,-0.11774
1640,-0.11591
1640.01,-0.11756
1640.02,-0.11503
1640.03,-0.11606
1640.04,-0.11621
1640.05,-0.11589
1640.06,-0.11604
1640.07,-0.11655
1640.08,-0.11624
1640.09,-0.11608
1640.1,-0.11576
1640.11,-0.11588
1640.12,-0.11584
1640.13,-0.11603
1640.14,-0.11649
1640.15,-0.11638
1640.16,-0.11703
1640.17,-0.11717
1640.18,-0.11766
1640.19,-0.11793
1640.2,-0.11795
1640.21,-0.11747
1640.22,-0.11694
1640.23,-0.11698
1640.24,-0.11701
1640.25,-0.11638
1640.26,-0.11633
1640.27,-0.11619
1640.28,-0.11637
1640.29,-0.11661
1640.3,-0.11685
1640.31,-0.11689
1640.32,-0.11662
1640.33,-0.11653
1640.34,-0.11586
1640.35,-0.11582
1640.36,-0.11506
1640.37,-0.11746
1640.38,-0.11589
1640.39,-0.11722
1640.4,-0.11834
1640.41,-0.11937
1640.42,-0.11888
1640.43,-0.11992
1640.44,-0.13387
1640.45,-0.18136
1640.46,-0.28824
1640.47,-0.48184
1640.48,-0.77828
1640.49,-1.19401
1640.5,-1.6795
1640.51,-2.14294
1640.52,-2.52942
1640.53,-2.77391
1640.54,-2.85251
1640.55,-2.77032
1640.56,-2.52814
1640.57,-2.1672
1640.58,-1.73454
1640.59,-1.29715
1640.6,-0.88707
1640.61,-0.56132
1640.62,-0.33718
1640.63,-0.21009
1640.64,-0.15233
1640.65,-0.12908
1640.66,-0.12082
1640.67,-0.11901
1640.68,-0.11842
1640.69,-0.11928
1640.7,-0.11912
1640.71,-0.11996
1640.72,-0.11987
1640.73,-0.11977
1640.74,-0.12013
1640.75,-0.12072
1640.76,-0.11893
1640.77,-0.11935
1640.78,-0.11897
1640.79,-0.11845
1640.8,-0.1186
1640.81,-0.11879
1640.82,-0.11869
1640.83,-0.11854
1640.84,-0.11865
1640.85,-0.11837
1640.86,-0.11824
1640.87,-0.11844
1640.88,-0.11883
1640.89,-0.11884
1640.9,-0.1196
1640.91,-0.12094
1640.92,-0.12063
1640.93,-0.12171
1640.94,-0.1219
1640.95,-0.12254
1640.96,-0.12249
1640.97,-0.12271
1640.98,-0.12188
1640.99,-0.12155
1641,-0.12118
1641.01,-0.11972
1641.02,-0.11953
1641.03,-0.11901
1641.04,-0.11901
1641.05,-0.11875
1641.06,-0.11844
1641.07,-0.11974
1641.08,-0.11825
1641.09,-0.11826
1641.1,-0.11812
1641.11,-0.11794
1641.12,-0.11832
1641.13,-0.1182
1641.14,-0.11886
1641.15,-0.11918
1641.16,-0.11981
1641.17,-0.12084
1641.18,-0.12078
1641.19,-0.12147
1641.2,-0.12222
1641.21,-0.12197
1641.22,-0.12209
1641.23,-0.12244
1641.24,-0.12178
1641.25,-0.1219
1641.26,-0.12122
1641.27,-0.12089
1641.28,-0.12086
1641.29,-0.12114
1641.3,-0.12142
1641.31,-0.12205
1641.32,-0.12198
1641.33,-0.1228
1641.34,-0.12326
1641.35,-0.1234
1641.36,-0.12319
1641.37,-0.12349
1641.38,-0.12271
1641.39,-0.12228
1641.4,-0.12143
1641.41,-0.12008
1641.42,-0.12005
1641.43,-0.11934
1641.44,-0.11862
1641.45,-0.11778
1641.46,-0.11794
1641.47,-0.11728
1641.48,-0.11751
1641.49,-0.11761
1641.5,-0.11786
1641.51,-0.11742
1641.52,-0.11812
1641.53,-0.11821
1641.54,-0.11824
1641.55,-0.11846
1641.56,-0.11867
1641.57,-0.11973
1641.58,-0.12018
1641.59,-0.12141
1641.6,-0.12162
1641.61,-0.12264
1641.62,-0.12267
1641.63,-0.12287
1641.64,-0.12336
1641.65,-0.12339
1641.66,-0.12303
1641.67,-0.12298
1641.68,-0.12267
1641.69,-0.12237
1641.7,-0.12182
1641.71,-0.1207
1641.72,-0.12033
1641.73,-0.11934
1641.74,-0.11806
1641.75,-0.1184
1641.76,-0.11719
1641.77,-0.11664
1641.78,-0.11624
1641.79,-0.11591
1641.8,-0.11614
1641.81,-0.11565
1641.82,-0.11587
1641.83,-0.1164
1641.84,-0.11626
1641.85,-0.11658
1641.86,-0.11625
1641.87,-0.11631
1641.88,-0.11713
1641.89,-0.11718
1641.9,-0.11784
1641.91,-0.11829
1641.92,-0.11987
1641.93,-0.12139
1641.94,-0.12217
1641.95,-0.12385
1641.96,-0.1249
1641.97,-0.12557
1641.98,-0.12527
1641.99,-0.12428
1642,-0.12371
1642.01,-0.12222
1642.02,-0.12115
1642.03,-0.12054
1642.04,-0.11937
1642.05,-0.11904
1642.06,-0.11832
1642.07,-0.11825
1642.08,-0.11792
1642.09,-0.118
1642.1,-0.11784
1642.11,-0.11743
1642.12,-0.11725
1642.13,-0.11748
1642.14,-0.11823
1642.15,-0.11948
1642.16,-0.12041
1642.17,-0.12132
1642.18,-0.12309
1642.19,-0.12328
1642.2,-0.12489
1642.21,-0.12478
1642.22,-0.12416
1642.23,-0.12313
1642.24,-0.12299
1642.25,-0.12196
1642.26,-0.12117
1642.27,-0.11975
1642.28,-0.11932
1642.29,-0.11915
1642.3,-0.11862
1642.31,-0.11876
1642.32,-0.11787
1642.33,-0.11825
1642.34,-0.11815
1642.35,-0.11864
1642.36,-0.11957
1642.37,-0.12013
1642.38,-0.12103
1642.39,-0.12194
1642.4,-0.12228
1642.41,-0.12261
1642.42,-0.1226
1642.43,-0.1226
1642.44,-0.12164
1642.45,-0.12101
1642.46,-0.12038
1642.47,-0.12125
1642.48,-0.12128
1642.49,-0.12192
1642.5,-0.12161
1642.51,-0.12214
1642.52,-0.122
1642.53,-0.12198
1642.54,-0.12106
1642.55,-0.1206
1642.56,-0.11981
1642.57,-0.11947
1642.58,-0.11947
1642.59,-0.11866
1642.6,-0.11943
1642.61,-0.11919
1642.62,-0.11917
1642.63,-0.11925
1642.64,-0.11885
1642.65,-0.1189
1642.66,-0.11859
1642.67,-0.11818
1642.68,-0.11779
1642.69,-0.11759
1642.7,-0.11773
1642.71,-0.11788
1642.72,-0.11776
1642.73,-0.11899
1642.74,-0.11727
1642.75,-0.11777
1642.76,-0.11795
1642.77,-0.11822
1642.78,-0.11775
1642.79,-0.11724
1642.8,-0.11752
1642.81,-0.1172
1642.82,-0.11745
1642.83,-0.11731
1642.84,-0.11771
1642.85,-0.11823
1642.86,-0.11925
1642.87,-0.12011
1642.88,-0.11966
1642.89,-0.11873
1642.9,-0.11887
1642.91,-0.11797
1642.92,-0.11807
1642.93,-0.11796
1642.94,-0.11771
1642.95,-0.1186
1642.96,-0.11892
1642.97,-0.11983
1642.98,-0.12015
1642.99,-0.11846
1643,-0.11978
1643.01,-0.14082
1643.02,-0.22862
1643.03,-0.46247
1643.04,-0.85951
1643.05,-1.42189
1643.06,-2.13502
1643.07,-2.89539
1643.08,-3.57121
1643.09,-4.15468
1643.1,-4.48993
1643.11,-4.61815
1643.12,-4.52675
1643.13,-4.20827
1643.14,-3.6838
1643.15,-3.0048
1643.16,-2.28405
1643.17,-1.60353
1643.18,-1.02596
1643.19,-0.65112
1643.2,-0.38107
1643.21,-0.22569
1643.22,-0.15995
1643.23,-0.1337
1643.24,-0.12316
1643.25,-0.12198
1643.26,-0.11866
1643.27,-0.11913
1643.28,-0.11923
1643.29,-0.11843
1643.3,-0.11793
1643.31,-0.11775
1643.32,-0.118
1643.33,-0.118
1643.34,-0.11794
1643.35,-0.11794
1643.36,-0.11841
1643.37,-0.11915
1643.38,-0.11966
1643.39,-0.11945
1643.4,-0.12051
1643.41,-0.12034
1643.42,-0.12096
1643.43,-0.11977
1643.44,-0.11956
1643.45,-0.11983
1643.46,-0.11937
1643.47,-0.11886
1643.48,-0.11918
1643.49,-0.11803
1643.5,-0.11913
1643.51,-0.11902
1643.52,-0.11866
1643.53,-0.11879
1643.54,-0.1188
1643.55,-0.11931
1643.56,-0.11916
1643.57,-0.11895
1643.58,-0.11991
1643.59,-0.11996
1643.6,-0.12118
1643.61,-0.12126
1643.62,-0.12268
1643.63,-0.12286
1643.64,-0.12255
1643.65,-0.12253
1643.66,-0.12185
1643.67,-0.12179
1643.68,-0.12075
1643.69,-0.1205
1643.7,-0.11987
1643.71,-0.11973
1643.72,-0.11914
1643.73,-0.11997
1643.74,-0.1195
1643.75,-0.11893
1643.76,-0.11926
1643.77,-0.11854
1643.78,-0.11869
1643.79,-0.11875
1643.8,-0.11856
1643.81,-0.11856
1643.82,-0.11887
1643.83,-0.11899
1643.84,-0.11934
1643.85,-0.11989
1643.86,-0.12065
1643.87,-0.12127
1643.88,-0.12145
1643.89,-0.12128
1643.9,-0.12185
1643.91,-0.12181
1643.92,-0.12171
1643.93,-0.12195
1643.94,-0.12158
1643.95,-0.12167
1643.96,-0.12194
1643.97,-0.12177
1643.98,-0.1222
1643.99,-0.12194
1644,-0.1227
1644.01,-0.12286
1644.02,-0.1237
1644.03,-0.12412
1644.04,-0.1238
1644.05,-0.12435
1644.06,-0.12377
1644.07,-0.12398
1644.08,-0.12372
1644.09,-0.12276
1644.1,-0.1221
1644.11,-0.12117
1644.12,-0.12073
1644.13,-0.1197
1644.14,-0.1196
1644.15,-0.11983
1644.16,-0.11961
1644.17,-0.11999
1644.18,-0.11971
1644.19,-0.12014
1644.2,-0.12019
1644.21,-0.1205
1644.22,-0.1203
1644.23,-0.12054
1644.24,-0.12223
1644.25,-0.1212
1644.26,-0.12235
1644.27,-0.12324
1644.28,-0.12397
1644.29,-0.12454
1644.3,-0.1249
1644.31,-0.12569
1644.32,-0.12562
1644.33,-0.1251
1644.34,-0.12582
1644.35,-0.12581
1644.36,-0.12575
1644.37,-0.12545
1644.38,-0.12561
1644.39,-0.12454
1644.4,-0.12511
1644.41,-0.12301
1644.42,-0.12296
1644.43,-0.12278
1644.44,-0.12109
1644.45,-0.12099
1644.46,-0.12073
1644.47,-0.11959
1644.48,-0.11969
1644.49,-0.12012
1644.5,-0.11991
1644.51,-0.12055
1644.52,-0.11975
1644.53,-0.12025
1644.54,-0.12061
1644.55,-0.12024
1644.56,-0.1209
1644.57,-0.12065
1644.58,-0.12031
1644.59,-0.12184
1644.6,-0.1211
1644.61,-0.12326
1644.62,-0.12424
1644.63,-0.12527
1644.64,-0.12617
1644.65,-0.12702
1644.66,-0.12728
1644.67,-0.12672
1644.68,-0.12659
1644.69,-0.126
1644.7,-0.12469
1644.71,-0.12377
1644.72,-0.12289
1644.73,-0.1214
1644.74,-0.12273
1644.75,-0.12113
1644.76,-0.12132
1644.77,-0.12121
1644.78,-0.12095
1644.79,-0.1198
1644.8,-0.11968
1644.81,-0.12047
1644.82,-0.12021
1644.83,-0.12084
1644.84,-0.12145
1644.85,-0.12227
1644.86,-0.12239
1644.87,-0.12433
1644.88,-0.12489
1644.89,-0.1255
1644.9,-0.12554
1644.91,-0.12479
1644.92,-0.12524
1644.93,-0.12396
1644.94,-0.12312
1644.95,-0.12248
1644.96,-0.12191
1644.97,-0.12177
1644.98,-0.12091
1644.99,-0.12051
1645,-0.11998
1645.01,-0.11984
1645.02,-0.11992
1645.03,-0.11986
1645.04,-0.11971
1645.05,-0.12085
1645.06,-0.12033
1645.07,-0.12317
1645.08,-0.12222
1645.09,-0.12299
1645.1,-0.12313
1645.11,-0.12317
1645.12,-0.12244
1645.13,-0.12232
1645.14,-0.12162
1645.15,-0.12214
1645.16,-0.12154
1645.17,-0.12206
1645.18,-0.12252
1645.19,-0.12292
1645.2,-0.12291
1645.21,-0.12387
1645.22,-0.12284
1645.23,-0.12394
1645.24,-0.12142
1645.25,-0.12101
1645.26,-0.1216
1645.27,-0.1215
1645.28,-0.12118
1645.29,-0.12168
1645.3,-0.12145
1645.31,-0.1215
1645.32,-0.12227
1645.33,-0.1221
1645.34,-0.1221
1645.35,-0.12177
1645.36,-0.12152
1645.37,-0.12151
1645.38,-0.1217
1645.39,-0.12159
1645.4,-0.12185
1645.41,-0.12225
1645.42,-0.12178
1645.43,-0.12155
1645.44,-0.12089
1645.45,-0.12079
1645.46,-0.1206
1645.47,-0.12055
1645.48,-0.1209
1645.49,-0.12268
1645.5,-0.12217
1645.51,-0.12349
1645.52,-0.12399
1645.53,-0.12308
1645.54,-0.12277
1645.55,-0.12287
1645.56,-0.12306
1645.57,-0.12337
1645.58,-0.12393
1645.59,-0.12453
1645.6,-0.12675
1645.61,-0.12599
1645.62,-0.12471
1645.63,-0.13106
1645.64,-0.18469
1645.65,-0.36063
1645.66,-0.74546
1645.67,-1.35609
1645.68,-2.15359
1645.69,-3.09477
1645.7,-4.0179
1645.71,-4.80404
1645.72,-5.41827
1645.73,-5.82158
1645.74,-5.99432
1645.75,-5.90332
1645.76,-5.54955
1645.77,-4.96557
1645.78,-4.14573
1645.79,-3.21869
1645.8,-2.34001
1645.81,-1.54401
1645.82,-0.96553
1645.83,-0.56313
1645.84,-0.30785
1645.85,-0.19827
1645.86,-0.1512
1645.87,-0.13345
1645.88,-0.12927
1645.89,-0.12713
1645.9,-0.12631
1645.91,-0.12484
1645.92,-0.12344
1645.93,-0.12298
1645.94,-0.12318
1645.95,-0.12258
1645.96,-0.12246
1645.97,-0.12204
1645.98,-0.12203
1645.99,-0.12231
1646,-0.12297
1646.01,-0.12229
1646.02,-0.12274
1646.03,-0.12237
1646.04,-0.12203
1646.05,-0.12176
1646.06,-0.1221
1646.07,-0.12191
1646.08,-0.12265
1646.09,-0.12302
1646.1,-0.12333
1646.11,-0.12346
1646.12,-0.12389
1646.13,-0.12326
1646.14,-0.12347
1646.15,-0.12271
1646.16,-0.12207
1646.17,-0.12097
1646.18,-0.12096
1646.19,-0.12106
1646.2,-0.12099
1646.21,-0.1207
1646.22,-0.1199
1646.23,-0.12101
1646.24,-0.11948
1646.25,-0.11997
1646.26,-0.12005
1646.27,-0.12086
1646.28,-0.12129
1646.29,-0.12159
1646.3,-0.12181
1646.31,-0.12299
1646.32,-0.12364
1646.33,-0.12396
1646.34,-0.12408
1646.35,-0.12394
1646.36,-0.12321
1646.37,-0.12278
1646.38,-0.12261
1646.39,-0.12206
1646.4,-0.12154
1646.41,-0.12123
1646.42,-0.12078
1646.43,-0.1203
1646.44,-0.11979
1646.45,-0.11953
1646.46,-0.11933
1646.47,-0.11907
1646.48,-0.11902
1646.49,-0.11952
1646.5,-0.11945
1646.51,-0.11932
1646.52,-0.11975
1646.53,-0.1201
1646.54,-0.12053
1646.55,-0.12066
1646.56,-0.12101
1646.57,-0.12128
1646.58,-0.12164
1646.59,-0.12228
1646.6,-0.12264
1646.61,-0.12296
1646.62,-0.12296
1646.63,-0.12304
1646.64,-0.12282
1646.65,-0.1229
1646.66,-0.12204
1646.67,-0.12235
1646.68,-0.12254
1646.69,-0.12267
1646.7,-0.12315
1646.71,-0.12362
1646.72,-0.12444
1646.73,-0.12488
1646.74,-0.12648
1646.75,-0.12599
1646.76,-0.12599
1646.77,-0.12662
1646.78,-0.12551
1646.79,-0.12386
1646.8,-0.12361
1646.81,-0.12252
1646.82,-0.12109
1646.83,-0.12142
1646.84,-0.12127
1646.85,-0.12063
1646.86,-0.12085
1646.87,-0.12108
1646.88,-0.12039
1646.89,-0.12072
1646.9,-0.12075
1646.91,-0.12045
1646.92,-0.12045
1646.93,-0.12133
1646.94,-0.12114
1646.95,-0.12125
1646.96,-0.1224
1646.97,-0.1235
1646.98,-0.12409
1646.99,-0.12502
1647,-0.12556
1647.01,-0.12603
1647.02,-0.12592
1647.03,-0.12605
1647.04,-0.12637
1647.05,-0.12676
1647.06,-0.12699
1647.07,-0.12731
1647.08,-0.12777
1647.09,-0.12658
1647.1,-0.1266
1647.11,-0.12484
1647.12,-0.12441
1647.13,-0.12347
1647.14,-0.12213
1647.15,-0.122
1647.16,-0.12056
1647.17,-0.12046
1647.18,-0.12047
1647.19,-0.12023
1647.2,-0.12034
1647.21,-0.12074
1647.22,-0.12048
1647.23,-0.12034
1647.24,-0.12036
1647.25,-0.11953
1647.26,-0.11977
1647.27,-0.11941
1647.28,-0.11983
1647.29,-0.12053
1647.3,-0.12122
1647.31,-0.12238
1647.32,-0.12315
1647.33,-0.12334
1647.34,-0.12502
1647.35,-0.12567
1647.36,-0.12593
1647.37,-0.12665
1647.38,-0.12674
1647.39,-0.1262
1647.4,-0.12589
1647.41,-0.12542
1647.42,-0.12378
1647.43,-0.12304
1647.44,-0.12234
1647.45,-0.12117
1647.46,-0.12096
1647.47,-0.12025
1647.48,-0.11985
1647.49,-0.11944
1647.5,-0.11916
1647.51,-0.11968
1647.52,-0.11966
1647.53,-0.11995
1647.54,-0.12004
1647.55,-0.12068
1647.56,-0.12129
1647.57,-0.12195
1647.58,-0.12277
1647.59,-0.12361
1647.6,-0.12396
1647.61,-0.1247
1647.62,-0.12425
1647.63,-0.12412
1647.64,-0.12369
1647.65,-0.12274
1647.66,-0.12209
1647.67,-0.12132
1647.68,-0.1203
1647.69,-0.11971
1647.7,-0.1194
1647.71,-0.11905
1647.72,-0.11949
1647.73,-0.12009
1647.74,-0.11917
1647.75,-0.11989
1647.76,-0.12114
1647.77,-0.12037
1647.78,-0.12108
1647.79,-0.12168
1647.8,-0.12239
1647.81,-0.12263
1647.82,-0.12267
1647.83,-0.12258
1647.84,-0.12172
1647.85,-0.12164
1647.86,-0.12157
1647.87,-0.12157
1647.88,-0.12171
1647.89,-0.12186
1647.9,-0.12243
1647.91,-0.12224
1647.92,-0.12254
1647.93,-0.12248
1647.94,-0.12154
1647.95,-0.12158
1647.96,-0.12166
1647.97,-0.12144
1647.98,-0.12035
1647.99,-0.12161
1648,-0.12053
1648.01,-0.12047
1648.02,-0.12008
1648.03,-0.12161
1648.04,-0.1204
1648.05,-0.12104
1648.06,-0.12189
1648.07,-0.12183
1648.08,-0.12268
1648.09,-0.12325
1648.1,-0.12284
1648.11,-0.12209
1648.12,-0.12168
1648.13,-0.12139
1648.14,-0.12082
1648.15,-0.12077
1648.16,-0.12119
1648.17,-0.12137
1648.18,-0.1216
1648.19,-0.12287
1648.2,-0.1226
1648.21,-0.123
1648.22,-0.12276
1648.23,-0.12233
1648.24,-0.12169
1648.25,-0.12144
1648.26,-0.12202
1648.27,-0.12202
1648.28,-0.12324
1648.29,-0.12468
1648.3,-0.12544
1648.31,-0.12563
1648.32,-0.12874
1648.33,-0.16401
1648.34,-0.26875
1648.35,-0.4907
1648.36,-0.8774
1648.37,-1.44765
1648.38,-2.25882
1648.39,-3.05502
1648.4,-3.76399
1648.41,-4.33935
1648.42,-4.71223
1648.43,-4.84596
1648.44,-4.74336
1648.45,-4.42895
1648.46,-3.92942
1648.47,-3.29223
1648.48,-2.57296
1648.49,-1.86294
1648.5,-1.23334
1648.51,-0.74056
1648.52,-0.42344
1648.53,-0.24444
1648.54,-0.17058
1648.55,-0.13967
1648.56,-0.12826
1648.57,-0.12544
1648.58,-0.12541
1648.59,-0.12481
1648.6,-0.12432
1648.61,-0.12415
1648.62,-0.12393
1648.63,-0.12433
1648.64,-0.12442
1648.65,-0.12439
1648.66,-0.12444
1648.67,-0.12361
1648.68,-0.12283
1648.69,-0.12329
1648.7,-0.12247
1648.71,-0.12225
1648.72,-0.12209
1648.73,-0.12185
1648.74,-0.12258
1648.75,-0.12118
1648.76,-0.12174
1648.77,-0.12204
1648.78,-0.1222
1648.79,-0.12192
1648.8,-0.12226
1648.81,-0.12206
1648.82,-0.12196
1648.83,-0.12253
1648.84,-0.12229
1648.85,-0.12287
1648.86,-0.1236
1648.87,-0.12391
1648.88,-0.12378
1648.89,-0.1241
1648.9,-0.1242
1648.91,-0.12367
1648.92,-0.123
1648.93,-0.12267
1648.94,-0.12211
1648.95,-0.12195
1648.96,-0.12252
1648.97,-0.12226
1648.98,-0.12242
1648.99,-0.12255
1649,-0.12239
1649.01,-0.12276
1649.02,-0.12258
1649.03,-0.123
1649.04,-0.12289
1649.05,-0.12296
1649.06,-0.12358
1649.07,-0.1242
1649.08,-0.12502
1649.09,-0.12589
1649.1,-0.12631
1649.11,-0.12658
1649.12,-0.12609
1649.13,-0.12616
1649.14,-0.12491
1649.15,-0.12494
1649.16,-0.12377
1649.17,-0.12317
1649.18,-0.12312
1649.19,-0.12234
1649.2,-0.12298
1649.21,-0.1223
1649.22,-0.12194
1649.23,-0.12271
1649.24,-0.12135
1649.25,-0.12237
1649.26,-0.12164
1649.27,-0.12178
1649.28,-0.12155
1649.29,-0.12207
1649.3,-0.12194
1649.31,-0.12328
1649.32,-0.12359
1649.33,-0.12403
1649.34,-0.12412
1649.35,-0.12442
1649.36,-0.12471
1649.37,-0.12465
1649.38,-0.1248
1649.39,-0.12512
1649.4,-0.12522
1649.41,-0.12495
1649.42,-0.12487
1649.43,-0.1247
1649.44,-0.12496
1649.45,-0.12525
1649.46,-0.12496
1649.47,-0.12576
1649.48,-0.12619
1649.49,-0.12649
1649.5,-0.12639
1649.51,-0.12733
1649.52,-0.12764
1649.53,-0.12713
1649.54,-0.12759
1649.55,-0.1265
1649.56,-0.12633
1649.57,-0.12556
1649.58,-0.12404
1649.59,-0.1239
1649.6,-0.12261
1649.61,-0.12285
1649.62,-0.1223
1649.63,-0.12283
1649.64,-0.12252
1649.65,-0.12286
1649.66,-0.12273
1649.67,-0.12279
1649.68,-0.12241
1649.69,-0.12274
1649.7,-0.12226
1649.71,-0.1232
1649.72,-0.12297
1649.73,-0.12402
1649.74,-0.12383
1649.75,-0.12519
1649.76,-0.12546
1649.77,-0.12639
1649.78,-0.12712
1649.79,-0.1275
1649.8,-0.12783
1649.81,-0.12796
1649.82,-0.12827
1649.83,-0.12826
1649.84,-0.12817
1649.85,-0.12866
1649.86,-0.12803
1649.87,-0.12747
1649.88,-0.12716
1649.89,-0.1268
1649.9,-0.12531
1649.91,-0.12456
1649.92,-0.12414
1649.93,-0.1226
1649.94,-0.12284
1649.95,-0.12211
1649.96,-0.1224
1649.97,-0.12278
1649.98,-0.12206
1649.99,-0.12343
1650,-0.12189
1650.01,-0.12265
1650.02,-0.12312
1650.03,-0.1224
1650.04,-0.12257
1650.05,-0.12272
1650.06,-0.12285
1650.07,-0.12321
1650.08,-0.12389
1650.09,-0.12496
1650.1,-0.12597
1650.11,-0.12679
1650.12,-0.12869
1650.13,-0.1284
1650.14,-0.12928
1650.15,-0.12919
1650.16,-0.12883
1650.17,-0.12809
1650.18,-0.1272
1650.19,-0.12668
1650.2,-0.12631
1650.21,-0.12506
1650.22,-0.12374
1650.23,-0.12472
1650.24,-0.12375
1650.25,-0.12319
1650.26,-0.1233
1650.27,-0.12296
1650.28,-0.12329
1650.29,-0.12304
1650.3,-0.12344
1650.31,-0.12328
1650.32,-0.12429
1650.33,-0.12503
1650.34,-0.1254
1650.35,-0.12654
1650.36,-0.12702
1650.37,-0.12832
1650.38,-0.12779
1650.39,-0.12758
1650.4,-0.12702
1650.41,-0.12749
1650.42,-0.12601
1650.43,-0.12537
1650.44,-0.12529
1650.45,-0.12416
1650.46,-0.12336
1650.47,-0.1236
1650.48,-0.123
1650.49,-0.12259
1650.5,-0.12257
1650.51,-0.12247
1650.52,-0.1231
1650.53,-0.1233
1650.54,-0.12449
1650.55,-0.12509
1650.56,-0.12583
1650.57,-0.12585
1650.58,-0.12602
1650.59,-0.12631
1650.6,-0.12527
1650.61,-0.12626
1650.62,-0.12514
1650.63,-0.12551
1650.64,-0.12465
1650.65,-0.12545
1650.66,-0.12525
1650.67,-0.12562
1650.68,-0.12565
1650.69,-0.12542
1650.7,-0.12516
1650.71,-0.12446
1650.72,-0.12426
1650.73,-0.12328
1650.74,-0.1231
1650.75,-0.12226
1650.76,-0.12246
1650.77,-0.12282
1650.78,-0.12306
1650.79,-0.12239
1650.8,-0.12298
1650.81,-0.12242
1650.82,-0.12229
1650.83,-0.12288
1650.84,-0.1211
1650.85,-0.12178
1650.86,-0.1225
1650.87,-0.12284
1650.88,-0.12266
1650.89,-0.12329
1650.9,-0.12371
1650.91,-0.12377
1650.92,-0.12354
1650.93,-0.12387
1650.94,-0.12144
1650.95,-0.12284
1650.96,-0.12224
1650.97,-0.12266
1650.98,-0.12304
1650.99,-0.12397
1651,-0.12535
1651.01,-0.12586
1651.02,-0.124
1651.03,-0.12815
1651.04,-0.1562
1651.05,-0.26559
1651.06,-0.53617
1651.07,-0.99468
1651.08,-1.63529
1651.09,-2.38229
1651.1,-3.17928
1651.11,-3.92053
1651.12,-4.53037
1651.13,-4.95765
1651.14,-5.15608
1651.15,-5.10914
1651.16,-4.82068
1651.17,-4.30701
1651.18,-3.60871
1651.19,-2.8336
1651.2,-2.03759
1651.21,-1.36178
1651.22,-0.85163
1651.23,-0.49822
1651.24,-0.28458
1651.25,-0.18389
1651.26,-0.14406
1651.27,-0.13073
1651.28,-0.12627
1651.29,-0.1244
1651.3,-0.12487
1651.31,-0.12448
1651.32,-0.12412
1651.33,-0.12427
1651.34,-0.12344
1651.35,-0.12345
1651.36,-0.12409
1651.37,-0.12327
1651.38,-0.1238
1651.39,-0.12374
1651.4,-0.12396
1651.41,-0.12573
1651.42,-0.1256
1651.43,-0.12587
1651.44,-0.12551
1651.45,-0.1257
1651.46,-0.12526
1651.47,-0.12574
1651.48,-0.12531
1651.49,-0.12497
1651.5,-0.12483
1651.51,-0.12455
1651.52,-0.12493
1651.53,-0.12516
1651.54,-0.1253
1651.55,-0.12533
1651.56,-0.12468
1651.57,-0.12346
1651.58,-0.12529
1651.59,-0.12475
1651.6,-0.12491
1651.61,-0.1248
1651.62,-0.12507
1651.63,-0.12476
1651.64,-0.12538
1651.65,-0.12448
1651.66,-0.12559
1651.67,-0.12566
1651.68,-0.12566
1651.69,-0.12579
1651.7,-0.12573
1651.71,-0.12623
1651.72,-0.12519
1651.73,-0.12601
1651.74,-0.12581
1651.75,-0.12538
1651.76,-0.12538
1651.77,-0.12546
1651.78,-0.12575
1651.79,-0.12563
1651.8,-0.12552
1651.81,-0.12508
1651.82,-0.12489
1651.83,-0.12475
1651.84,-0.12479
1651.85,-0.12507
1651.86,-0.12405
1651.87,-0.12541
1651.88,-0.12558
1651.89,-0.12559
1651.9,-0.12598
1651.91,-0.12653
1651.92,-0.12563
1651.93,-0.12632
1651.94,-0.12658
1651.95,-0.12594
1651.96,-0.12588
1651.97,-0.12576
1651.98,-0.12566
1651.99,-0.12636
1652,-0.12395
1652.01,-0.12455
1652.02,-0.1244
1652.03,-0.1245
1652.04,-0.12376
1652.05,-0.12412
1652.06,-0.12333
1652.07,-0.12328
1652.08,-0.12314
1652.09,-0.12321
1652.1,-0.12347
1652.11,-0.1248
1652.12,-0.12327
1652.13,-0.1234
1652.14,-0.12296
1652.15,-0.12309
1652.16,-0.12361
1652.17,-0.123
1652.18,-0.12425
1652.19,-0.12355
1652.2,-0.12418
1652.21,-0.12423
1652.22,-0.12462
1652.23,-0.12438
1652.24,-0.12368
1652.25,-0.12457
1652.26,-0.12259
1652.27,-0.12372
1652.28,-0.12395
1652.29,-0.12348
1652.3,-0.12342
1652.31,-0.12432
1652.32,-0.12401
1652.33,-0.1249
1652.34,-0.12543
1652.35,-0.12526
1652.36,-0.12535
1652.37,-0.12498
1652.38,-0.12517
1652.39,-0.12463
1652.4,-0.12398
1652.41,-0.12332
1652.42,-0.12403
1652.43,-0.12302
1652.44,-0.12351
1652.45,-0.1237
1652.46,-0.12245
1652.47,-0.12392
1652.48,-0.12245
1652.49,-0.12287
1652.5,-0.12313
1652.51,-0.12257
1652.52,-0.12267
1652.53,-0.12332
1652.54,-0.124
1652.55,-0.12374
1652.56,-0.12377
1652.57,-0.12435
1652.58,-0.12451
1652.59,-0.12478
1652.6,-0.12564
1652.61,-0.12537
1652.62,-0.12578
1652.63,-0.1248
1652.64,-0.1276
1652.65,-0.12649
1652.66,-0.12714
1652.67,-0.12724
1652.68,-0.12766
1652.69,-0.12756
1652.7,-0.12727
1652.71,-0.12717
1652.72,-0.12643
1652.73,-0.12594
1652.74,-0.12599
1652.75,-0.12541
1652.76,-0.12513
1652.77,-0.12575
1652.78,-0.12558
1652.79,-0.12558
1652.8,-0.12522
1652.81,-0.12578
1652.82,-0.1252
1652.83,-0.12523
1652.84,-0.12537
1652.85,-0.12535
1652.86,-0.12622
1652.87,-0.12538
1652.88,-0.1261
1652.89,-0.12622
1652.9,-0.12651
1652.91,-0.12637
1652.92,-0.12687
1652.93,-0.12728
1652.94,-0.12792
1652.95,-0.12816
1652.96,-0.12843
1652.97,-0.12862
1652.98,-0.12924
1652.99,-0.1297
1653,-0.12878
1653.01,-0.13002
1653.02,-0.12877
1653.03,-0.12843
1653.04,-0.12737
1653.05,-0.12776
1653.06,-0.12669
1653.07,-0.12707
1653.08,-0.12693
1653.09,-0.12683
1653.1,-0.12681
1653.11,-0.12708
1653.12,-0.12666
1653.13,-0.12671
1653.14,-0.12688
1653.15,-0.12667
1653.16,-0.12708
1653.17,-0.12673
1653.18,-0.12728
1653.19,-0.12821
1653.2,-0.12763
1653.21,-0.1286
1653.22,-0.12898
1653.23,-0.12872
1653.24,-0.12807
1653.25,-0.12803
1653.26,-0.1283
1653.27,-0.12742
1653.28,-0.12674
1653.29,-0.12689
1653.3,-0.1261
1653.31,-0.12573
1653.32,-0.12611
1653.33,-0.12589
1653.34,-0.12607
1653.35,-0.12601
1653.36,-0.12634
1653.37,-0.1261
1653.38,-0.12659
1653.39,-0.12607
1653.4,-0.1267
1653.41,-0.12681
1653.42,-0.12658
1653.43,-0.12795
1653.44,-0.12662
1653.45,-0.12744
1653.46,-0.12671
1653.47,-0.12695
1653.48,-0.12615
1653.49,-0.12615
1653.5,-0.12586
1653.51,-0.12612
1653.52,-0.12642
1653.53,-0.12642
1653.54,-0.12716
1653.55,-0.12686
1653.56,-0.12609
1653.57,-0.12742
1653.58,-0.12606
1653.59,-0.12592
1653.6,-0.12585
1653.61,-0.12538
1653.62,-0.12546
1653.63,-0.12505
1653.64,-0.12509
1653.65,-0.12528
1653.66,-0.12637
1653.67,-0.12654
1653.68,-0.12754
1653.69,-0.12715
1653.7,-0.12674
1653.71,-0.12668
1653.72,-0.12621
1653.73,-0.1267
1653.74,-0.12545
1653.75,-0.12671
1653.76,-0.12772
1653.77,-0.12846
1653.78,-0.13002
1653.79,-0.12908
1653.8,-0.1287
1653.81,-0.14481
1653.82,-0.21562
1653.83,-0.39752
1653.84,-0.74305
1653.85,-1.25524
1653.86,-1.92632
1653.87,-2.67293
1653.88,-3.38759
1653.89,-3.99378
1653.9,-4.42684
1653.91,-4.67072
1653.92,-4.65814
1653.93,-4.40203
1653.94,-3.97096
1653.95,-3.35834
1653.96,-2.67385
1653.97,-1.95586
1653.98,-1.34916
1653.99,-0.86068
1654,-0.49951
1654.01,-0.29453
1654.02,-0.1948
1654.03,-0.15055
1654.04,-0.13335
1654.05,-0.12981
1654.06,-0.12933
1654.07,-0.12792
1654.08,-0.12804
1654.09,-0.12807
1654.1,-0.12757
1654.11,-0.12726
1654.12,-0.12689
1654.13,-0.12749
1654.14,-0.12668
1654.15,-0.12654
1654.16,-0.12698
1654.17,-0.12705
1654.18,-0.12718
1654.19,-0.12779
1654.2,-0.12793
1654.21,-0.12774
1654.22,-0.12797
1654.23,-0.12696
1654.24,-0.12715
1654.25,-0.12754
1654.26,-0.12775
1654.27,-0.12752
1654.28,-0.12808
1654.29,-0.12801
1654.3,-0.12781
1654.31,-0.12779
1654.32,-0.12788
1654.33,-0.12814
1654.34,-0.12795
1654.35,-0.12744
1654.36,-0.12821
1654.37,-0.12742
1654.38,-0.12756
1654.39,-0.12754
1654.4,-0.12777
1654.41,-0.1269
1654.42,-0.12731
1654.43,-0.12713
1654.44,-0.12749
1654.45,-0.12776
1654.46,-0.12792
1654.47,-0.12775
1654.48,-0.12707
1654.49,-0.12701
1654.5,-0.12748
1654.51,-0.12669
1654.52,-0.12722
1654.53,-0.1277
1654.54,-0.12716
1654.55,-0.12784
1654.56,-0.12804
1654.57,-0.12762
1654.58,-0.12783
1654.59,-0.12754
1654.6,-0.12764
1654.61,-0.12738
1654.62,-0.12685
1654.63,-0.12723
1654.64,-0.12704
1654.65,-0.12707
1654.66,-0.12685
1654.67,-0.12705
1654.68,-0.12735
1654.69,-0.12695
1654.7,-0.12726
1654.71,-0.12677
1654.72,-0.12706
1654.73,-0.12738
1654.74,-0.12717
1654.75,-0.12715
1654.76,-0.12808
1654.77,-0.12806
1654.78,-0.12798
1654.79,-0.12801
1654.8,-0.12765
1654.81,-0.12764
1654.82,-0.12756
1654.83,-0.12711
1654.84,-0.12748
1654.85,-0.12715
1654.86,-0.12723
1654.87,-0.12681
1654.88,-0.12682
1654.89,-0.12705
1654.9,-0.12657
1654.91,-0.12693
1654.92,-0.12671
1654.93,-0.12651
1654.94,-0.1268
1654.95,-0.12679
1654.96,-0.12665
1654.97,-0.12636
1654.98,-0.12703
1654.99,-0.12629
1655,-0.12711
1655.01,-0.12697
1655.02,-0.12722
1655.03,-0.12736
1655.04,-0.12732
1655.05,-0.12756
1655.06,-0.12696
1655.07,-0.1274
1655.08,-0.12702
1655.09,-0.12761
1655.1,-0.12738
1655.11,-0.12784
1655.12,-0.12724
1655.13,-0.12774
1655.14,-0.12738
1655.15,-0.12754
1655.16,-0.1275
1655.17,-0.12776
1655.18,-0.12754
1655.19,-0.12807
1655.2,-0.12786
1655.21,-0.12828
1655.22,-0.12808
1655.23,-0.12782
1655.24,-0.12822
1655.25,-0.1279
1655.26,-0.12753
1655.27,-0.12768
1655.28,-0.1272
1655.29,-0.12705
1655.3,-0.12709
1655.31,-0.12719
1655.32,-0.12748
1655.33,-0.12731
1655.34,-0.12771
1655.35,-0.12687
1655.36,-0.12717
1655.37,-0.12734
1655.38,-0.12729
1655.39,-0.12719
1655.4,-0.12744
1655.41,-0.12708
1655.42,-0.1275
1655.43,-0.12728
1655.44,-0.12783
1655.45,-0.12814
1655.46,-0.12791
1655.47,-0.12791
1655.48,-0.1281
1655.49,-0.12813
1655.5,-0.12883
1655.51,-0.12831
1655.52,-0.12845
1655.53,-0.12845
1655.54,-0.12847
1655.55,-0.1287
1655.56,-0.12783
1655.57,-0.12826
1655.58,-0.12815
1655.59,-0.12789
1655.6,-0.127
1655.61,-0.12757
1655.62,-0.1271
1655.63,-0.12713
1655.64,-0.12689
1655.65,-0.12738
1655.66,-0.12666
1655.67,-0.12723
1655.68,-0.12714
1655.69,-0.12736
1655.7,-0.12716
1655.71,-0.12704
1655.72,-0.12711
1655.73,-0.12652
1655.74,-0.12714
1655.75,-0.12685
1655.76,-0.12699
1655.77,-0.12718
1655.78,-0.12764
1655.79,-0.12748
1655.8,-0.12805
1655.81,-0.12745
1655.82,-0.12795
1655.83,-0.12819
1655.84,-0.12814
1655.85,-0.128
1655.86,-0.12813
1655.87,-0.12762
1655.88,-0.12798
1655.89,-0.12752
1655.9,-0.12724
1655.91,-0.12735
1655.92,-0.12682
1655.93,-0.12734
1655.94,-0.12727
1655.95,-0.12702
1655.96,-0.1272
1655.97,-0.12678
1655.98,-0.12748
1655.99,-0.12723
1656,-0.12738
1656.01,-0.1277
1656.02,-0.12766
1656.03,-0.12803
1656.04,-0.12794
1656.05,-0.12837
1656.06,-0.12836
1656.07,-0.12857
1656.08,-0.12886
1656.09,-0.1286
1656.1,-0.12791
1656.11,-0.12853
1656.12,-0.12812
1656.13,-0.12773
1656.14,-0.12758
1656.15,-0.12756
1656.16,-0.12787
1656.17,-0.12761
1656.18,-0.12738
1656.19,-0.12739
1656.2,-0.12744
1656.21,-0.12777
1656.22,-0.12779
1656.23,-0.12789
1656.24,-0.12795
1656.25,-0.12836
1656.26,-0.12851
1656.27,-0.12856
1656.28,-0.1288
1656.29,-0.12894
1656.3,-0.12892
1656.31,-0.12888
1656.32,-0.1287
1656.33,-0.12848
1656.34,-0.1286
1656.35,-0.12821
1656.36,-0.12838
1656.37,-0.12908
1656.38,-0.12868
1656.39,-0.12896
1656.4,-0.12899
1656.41,-0.12883
1656.42,-0.12882
1656.43,-0.12883
1656.44,-0.12851
1656.45,-0.12866
1656.46,-0.12844
1656.47,-0.12825
1656.48,-0.12803
1656.49,-0.12765
1656.5,-0.12816
1656.51,-0.1288
1656.52,-0.12861
1656.53,-0.12867
1656.54,-0.12846
1656.55,-0.12843
1656.56,-0.12824
1656.57,-0.12854
1656.58,-0.12819
1656.59,-0.12881
1656.6,-0.1288
1656.61,-0.12969
1656.62,-0.12958
1656.63,-0.12975
1656.64,-0.1295
1656.65,-0.13018
1656.66,-0.14517
1656.67,-0.19176
1656.68,-0.29632
1656.69,-0.47895
1656.7,-0.75238
1656.71,-1.07864
1656.72,-1.44051
1656.73,-1.77803
1656.74,-2.05051
1656.75,-2.22403
1656.76,-2.26818
1656.77,-2.17467
1656.78,-1.9562
1656.79,-1.63617
1656.8,-1.24326
1656.81,-0.90472
1656.82,-0.62079
1656.83,-0.41348
1656.84,-0.27334
1656.85,-0.19222
1656.86,-0.15641
1656.87,-0.13829
1656.88,-0.13085
1656.89,-0.1283
1656.9,-0.12776
1656.91,-0.12845
1656.92,-0.12845
1656.93,-0.12826
1656.94,-0.12847
1656.95,-0.12716
1656.96,-0.1277
1656.97,-0.12707
1656.98,-0.12742
1656.99,-0.12697
1657,-0.12746
1657.01,-0.127
1657.02,-0.12715
1657.03,-0.12757
1657.04,-0.12783
1657.05,-0.12734
1657.06,-0.12711
1657.07,-0.12744
1657.08,-0.12747
1657.09,-0.12723
1657.1,-0.1272
1657.11,-0.12747
1657.12,-0.12748
1657.13,-0.12777
1657.14,-0.12742
1657.15,-0.12778
1657.16,-0.1278
1657.17,-0.12786
1657.18,-0.1277
1657.19,-0.12811
1657.2,-0.12806
1657.21,-0.12855
1657.22,-0.1285
1657.23,-0.128
1657.24,-0.12865
1657.25,-0.12803
1657.26,-0.12821
1657.27,-0.12853
1657.28,-0.12851
1657.29,-0.12798
1657.3,-0.1284
1657.31,-0.12792
1657.32,-0.12833
1657.33,-0.12807
1657.34,-0.12843
1657.35,-0.12816
1657.36,-0.12827
1657.37,-0.12812
1657.38,-0.12847
1657.39,-0.12832
1657.4,-0.12832
1657.41,-0.12834
1657.42,-0.12887
1657.43,-0.12871
1657.44,-0.12887
1657.45,-0.12908
1657.46,-0.1294
1657.47,-0.1292
1657.48,-0.12924
1657.49,-0.12877
1657.5,-0.12943
1657.51,-0.12928
1657.52,-0.129
1657.53,-0.12971
1657.54,-0.12921
1657.55,-0.12911
1657.56,-0.12891
1657.57,-0.12881
1657.58,-0.12925
1657.59,-0.12944
1657.6,-0.12934
1657.61,-0.12919
1657.62,-0.12952
1657.63,-0.12944
1657.64,-0.12975
1657.65,-0.12944
1657.66,-0.13019
1657.67,-0.12994
1657.68,-0.13021
1657.69,-0.13018
1657.7,-0.13029
1657.71,-0.13049
1657.72,-0.13017
1657.73,-0.1299
1657.74,-0.12964
1657.75,-0.12989
1657.76,-0.13047
1657.77,-0.13005
1657.78,-0.12917
1657.79,-0.12969
1657.8,-0.12915
1657.81,-0.12903
1657.82,-0.12926
1657.83,-0.12854
1657.84,-0.12855
1657.85,-0.12897
1657.86,-0.12879
1657.87,-0.12832
1657.88,-0.12846
1657.89,-0.1283
1657.9,-0.12821
1657.91,-0.12879
1657.92,-0.12835
1657.93,-0.12887
1657.94,-0.12892
1657.95,-0.12874
1657.96,-0.12901
1657.97,-0.1286
1657.98,-0.12884
1657.99,-0.12893
1658,-0.12901
1658.01,-0.12875
1658.02,-0.12856
1658.03,-0.12887
1658.04,-0.12787
1658.05,-0.12853
1658.06,-0.12896
1658.07,-0.12882
1658.08,-0.12899
1658.09,-0.12857
1658.1,-0.12923
1658.11,-0.12898
1658.12,-0.12947
1658.13,-0.129
1658.14,-0.12887
1658.15,-0.12854
1658.16,-0.12823
1658.17,-0.12845
1658.18,-0.12775
1658.19,-0.12779
1658.2,-0.12809
1658.21,-0.12736
1658.22,-0.12755
1658.23,-0.12759
1658.24,-0.12727
1658.25,-0.12701
1658.26,-0.12713
1658.27,-0.12731
1658.28,-0.12706
1658.29,-0.12757
1658.3,-0.12684
1658.31,-0.12734
1658.32,-0.12701
1658.33,-0.12715
1658.34,-0.12768
1658.35,-0.12682
1658.36,-0.12758
1658.37,-0.12811
1658.38,-0.12812
1658.39,-0.12843
1658.4,-0.12775
1658.41,-0.12837
1658.42,-0.12829
1658.43,-0.12862
1658.44,-0.12832
1658.45,-0.12867
1658.46,-0.12836
1658.47,-0.12913
1658.48,-0.12861
1658.49,-0.1276
1658.5,-0.12791
1658.51,-0.12758
1658.52,-0.12774
1658.53,-0.12732
1658.54,-0.12775
1658.55,-0.12742
1658.56,-0.12733
1658.57,-0.12741
1658.58,-0.12736
1658.59,-0.12765
1658.6,-0.12748
1658.61,-0.12762
1658.62,-0.12769
1658.63,-0.12804
1658.64,-0.12785
1658.65,-0.12774
1658.66,-0.12794
1658.67,-0.12836
1658.68,-0.12758
1658.69,-0.12822
1658.7,-0.1287
1658.71,-0.1282
1658.72,-0.1287
1658.73,-0.12951
1658.74,-0.12893
1658.75,-0.12949
1658.76,-0.12962
1658.77,-0.13013
1658.78,-0.12925
1658.79,-0.12999
1658.8,-0.12945
1658.81,-0.12936
1658.82,-0.1294
1658.83,-0.12929
1658.84,-0.12895
1658.85,-0.12861
1658.86,-0.12935
1658.87,-0.12901
1658.88,-0.12893
1658.89,-0.12873
1658.9,-0.12876
1658.91,-0.12893
1658.92,-0.12926
1658.93,-0.13019
1658.94,-0.12921
1658.95,-0.12933
1658.96,-0.12999
1658.97,-0.12979
1658.98,-0.13056
1658.99,-0.13063
1659,-0.13085
1659.01,-0.13054
1659.02,-0.1306
1659.03,-0.13013
1659.04,-0.13011
1659.05,-0.1298
1659.06,-0.12926
1659.07,-0.13081
1659.08,-0.12818
1659.09,-0.12949
1659.1,-0.12929
1659.11,-0.1294
1659.12,-0.12938
1659.13,-0.12968
1659.14,-0.12957
1659.15,-0.12898
1659.16,-0.13011
1659.17,-0.1291
1659.18,-0.1302
1659.19,-0.13002
1659.2,-0.13027
1659.21,-0.13017
1659.22,-0.13035
1659.23,-0.13016
1659.24,-0.12994
1659.25,-0.12989
1659.26,-0.13015
1659.27,-0.1296
1659.28,-0.13
1659.29,-0.13036
1659.3,-0.13003
1659.31,-0.12987
1659.32,-0.13031
1659.33,-0.13067
1659.34,-0.1279
1659.35,-0.1307
1659.36,-0.12969
1659.37,-0.12989
1659.38,-0.12939
1659.39,-0.12913
1659.4,-0.12919
1659.41,-0.12902
1659.42,-0.1286
1659.43,-0.129
1659.44,-0.12885
1659.45,-0.12892
1659.46,-0.12948
1659.47,-0.12895
1659.48,-0.12945
1659.49,-0.12924
1659.5,-0.12946
1659.51,-0.13152
1659.52,-0.14395
1659.53,-0.1793
1659.54,-0.24551
1659.55,-0.35112
1659.56,-0.50085
1659.57,-0.67131
1659.58,-0.85205
1659.59,-1.00282
1659.6,-1.11285
1659.61,-1.15736
1659.62,-1.12686
1659.63,-1.0303
1659.64,-0.88356
1659.65,-0.70455
1659.66,-0.538
1659.67,-0.38791
1659.68,-0.27894
1659.69,-0.20247
1659.7,-0.1619
1659.71,-0.14287
1659.72,-0.13416
1659.73,-0.13041
1659.74,-0.1296
1659.75,-0.12929
1659.76,-0.1297
1659.77,-0.12945
1659.78,-0.12908
1659.79,-0.12923
1659.8,-0.1291
1659.81,-0.12907
1659.82,-0.12909
1659.83,-0.12859
1659.84,-0.12888
1659.85,-0.12929
1659.86,-0.12924
1659.87,-0.12914
1659.88,-0.12874
1659.89,-0.12984
1659.9,-0.12942
1659.91,-0.12875
1659.92,-0.12903
1659.93,-0.12942
1659.94,-0.13033
1659.95,-0.12849
1659.96,-0.12929
1659.97,-0.12921
1659.98,-0.13001
1659.99,-0.12916
1660,-0.12948
1660.01,-0.12925
1660.02,-0.13008
1660.03,-0.12889
1660.04,-0.13003
1660.05,-0.12926
1660.06,-0.12961
1660.07,-0.12963
1660.08,-0.12932
1660.09,-0.13061
1660.1,-0.1298
1660.11,-0.12962
1660.12,-0.13031
1660.13,-0.12967
1660.14,-0.13003
1660.15,-0.13032
1660.16,-0.12976
1660.17,-0.12945
1660.18,-0.13001
1660.19,-0.12979
1660.2,-0.13059
1660.21,-0.12989
1660.22,-0.12986
1660.23,-0.13007
1660.24,-0.12981
1660.25,-0.12955
1660.26,-0.13018
1660.27,-0.12966
1660.28,-0.13004
1660.29,-0.13065
1660.3,-0.1301
1660.31,-0.13015
1660.32,-0.13007
1660.33,-0.13035
1660.34,-0.13044
1660.35,-0.12893
1660.36,-0.12991
1660.37,-0.13064
1660.38,-0.13036
1660.39,-0.1294
1660.4,-0.13126
1660.41,-0.12939
1660.42,-0.13051
1660.43,-0.13039
1660.44,-0.12998
1660.45,-0.13007
1660.46,-0.13013
1660.47,-0.12996
1660.48,-0.13009
1660.49,-0.13044
1660.5,-0.12961
1660.51,-0.13133
1660.52,-0.12993
1660.53,-0.13069
1660.54,-0.12948
1660.55,-0.13074
1660.56,-0.13004
1660.57,-0.13079
1660.58,-0.1295
1660.59,-0.12929
1660.6,-0.12994
1660.61,-0.12977
1660.62,-0.13088
1660.63,-0.12961
1660.64,-0.13098
1660.65,-0.13056
1660.66,-0.12933
1660.67,-0.13019
1660.68,-0.1303
1660.69,-0.12953
1660.7,-0.12946
1660.71,-0.1304
1660.72,-0.13011
1660.73,-0.12978
1660.74,-0.12999
1660.75,-0.13006
1660.76,-0.12995
1660.77,-0.13043
1660.78,-0.13031
1660.79,-0.12975
1660.8,-0.12991
1660.81,-0.13044
1660.82,-0.13047
1660.83,-0.1298
1660.84,-0.12999
1660.85,-0.13013
1660.86,-0.13041
1660.87,-0.1308
1660.88,-0.13003
1660.89,-0.13007
1660.9,-0.13035
1660.91,-0.12984
1660.92,-0.12986
1660.93,-0.1304
1660.94,-0.12959
1660.95,-0.13053
1660.96,-0.1306
1660.97,-0.13037
1660.98,-0.13076
1660.99,-0.13037
1661,-0.131
1661.01,-0.13004
1661.02,-0.13037
1661.03,-0.1302
1661.04,-0.13035
1661.05,-0.12968
1661.06,-0.13103
1661.07,-0.13077
1661.08,-0.13048
1661.09,-0.13051
1661.1,-0.13056
1661.11,-0.13058
1661.12,-0.13057
1661.13,-0.1302
1661.14,-0.13053
1661.15,-0.1311
1661.16,-0.13116
1661.17,-0.13009
1661.18,-0.13098
1661.19,-0.13092
1661.2,-0.13072
1661.21,-0.13093
1661.22,-0.1305
1661.23,-0.13114
1661.24,-0.13026
1661.25,-0.13009
1661.26,-0.13082
1661.27,-0.13039
1661.28,-0.13038
1661.29,-0.13071
1661.3,-0.13007
1661.31,-0.13072
1661.32,-0.13082
1661.33,-0.13018
1661.34,-0.13048
1661.35,-0.13023
1661.36,-0.12993
1661.37,-0.13015
1661.38,-0.13025
1661.39,-0.12987
1661.4,-0.13064
1661.41,-0.13034
1661.42,-0.13027
1661.43,-0.13022
1661.44,-0.13021
1661.45,-0.13068
1661.46,-0.1299
1661.47,-0.12902
1661.48,-0.13131
1661.49,-0.12917
1661.5,-0.12999
1661.51,-0.13024
1661.52,-0.12978
1661.53,-0.13088
1661.54,-0.13007
1661.55,-0.12998
1661.56,-0.13005
1661.57,-0.13
1661.58,-0.12959
1661.59,-0.12985
1661.6,-0.12902
1661.61,-0.13132
1661.62,-0.12937
1661.63,-0.13021
1661.64,-0.12963
1661.65,-0.1305
1661.66,-0.1299
1661.67,-0.12936
1661.68,-0.13011
1661.69,-0.12921
1661.7,-0.12975
1661.71,-0.12974
1661.72,-0.12959
1661.73,-0.12995
1661.74,-0.1299
1661.75,-0.12979
1661.76,-0.12954
1661.77,-0.12988
1661.78,-0.12996
1661.79,-0.12948
1661.8,-0.12972
1661.81,-0.12973
1661.82,-0.12945
1661.83,-0.12917
1661.84,-0.12996
1661.85,-0.12902
1661.86,-0.13051
1661.87,-0.1297
1661.88,-0.13012
1661.89,-0.12918
1661.9,-0.12988
1661.91,-0.12916
1661.92,-0.12967
1661.93,-0.12949
1661.94,-0.12971
1661.95,-0.12935
1661.96,-0.1301
1661.97,-0.13014
1661.98,-0.12955
1661.99,-0.13017
1662,-0.13048
1662.01,-0.12934
1662.02,-0.12969
1662.03,-0.1297
1662.04,-0.13018
1662.05,-0.12994
1662.06,-0.13016
1662.07,-0.1301
1662.08,-0.12981
1662.09,-0.13012
1662.1,-0.12988
1662.11,-0.13135
1662.12,-0.12957
1662.13,-0.13008
1662.14,-0.12947
1662.15,-0.13026
1662.16,-0.13016
1662.17,-0.1304
1662.18,-0.13063
1662.19,-0.1305
1662.2,-0.13074
1662.21,-0.13034
1662.22,-0.13092
1662.23,-0.13031
1662.24,-0.13001
1662.25,-0.12981
1662.26,-0.1312
1662.27,-0.13057
1662.28,-0.13051
1662.29,-0.13106
1662.3,-0.13109
1662.31,-0.13092
1662.32,-0.13094
1662.33,-0.13093
1662.34,-0.13052
1662.35,-0.13097
1662.36,-0.13061
1662.37,-0.13099
1662.38,-0.1316
1662.39,-0.13114
1662.4,-0.13233
1662.41,-0.13138
1662.42,-0.13207
1662.43,-0.13367
1662.44,-0.14572
1662.45,-0.17809
1662.46,-0.24026
1662.47,-0.34132
1662.48,-0.47782
1662.49,-0.65455
1662.5,-0.8429
1662.51,-1.01654
1662.52,-1.14408
1662.53,-1.20316
1662.54,-1.18219
1662.55,-1.09165
1662.56,-0.94472
1662.57,-0.76077
1662.58,-0.58674
1662.59,-0.42955
1662.6,-0.31239
1662.61,-0.23213
1662.62,-0.17838
1662.63,-0.14901
1662.64,-0.13817
1662.65,-0.1335
1662.66,-0.13189
1662.67,-0.13075
1662.68,-0.13103
1662.69,-0.13063
1662.7,-0.13096
1662.71,-0.13048
1662.72,-0.13095
1662.73,-0.13084
1662.74,-0.13003
1662.75,-0.13065
1662.76,-0.13047
1662.77,-0.13126
1662.78,-0.13037
1662.79,-0.13043
1662.8,-0.12979
1662.81,-0.1301
1662.82,-0.12982
1662.83,-0.13034
1662.84,-0.1302
1662.85,-0.12966
1662.86,-0.13112
1662.87,-0.12907
1662.88,-0.13024
1662.89,-0.13089
1662.9,-0.12958
1662.91,-0.12965
1662.92,-0.1295
1662.93,-0.12938
1662.94,-0.1303
1662.95,-0.12958
1662.96,-0.12973
1662.97,-0.13004
1662.98,-0.12985
1662.99,-0.12985
1663,-0.12945
1663.01,-0.12982
1663.02,-0.13013
1663.03,-0.12961
1663.04,-0.12882
1663.05,-0.12949
1663.06,-0.1296
1663.07,-0.12928
1663.08,-0.12931
1663.09,-0.12928
1663.1,-0.12948
1663.11,-0.12888
1663.12,-0.12995
1663.13,-0.12906
1663.14,-0.12905
1663.15,-0.12901
1663.16,-0.12969
1663.17,-0.12911
1663.18,-0.12924
1663.19,-0.12907
1663.2,-0.12992
1663.21,-0.12959
1663.22,-0.12999
1663.23,-0.1293
1663.24,-0.13072
1663.25,-0.12873
1663.26,-0.12951
1663.27,-0.12925
1663.28,-0.12978
1663.29,-0.12966
1663.3,-0.12984
1663.31,-0.13016
1663.32,-0.1302
1663.33,-0.13043
1663.34,-0.13032
1663.35,-0.12968
1663.36,-0.12949
1663.37,-0.1304
1663.38,-0.12986
1663.39,-0.13064
1663.4,-0.13069
1663.41,-0.13018
1663.42,-0.131
1663.43,-0.13066
1663.44,-0.1312
1663.45,-0.13044
1663.46,-0.13071
1663.47,-0.13073
1663.48,-0.13078
1663.49,-0.13099
1663.5,-0.13074
1663.51,-0.13095
1663.52,-0.13101
1663.53,-0.13164
1663.54,-0.13136
1663.55,-0.13159
1663.56,-0.13151
1663.57,-0.13163
1663.58,-0.13142
1663.59,-0.13111
1663.6,-0.13133
1663.61,-0.13118
1663.62,-0.13152
1663.63,-0.13196
1663.64,-0.1321
1663.65,-0.13197
1663.66,-0.13231
1663.67,-0.13233
1663.68,-0.13179
1663.69,-0.13167
1663.7,-0.13161
1663.71,-0.13172
1663.72,-0.13274
1663.73,-0.13234
1663.74,-0.13188
1663.75,-0.13214
1663.76,-0.13262
1663.77,-0.13251
1663.78,-0.13243
1663.79,-0.1324
1663.8,-0.1323
1663.81,-0.13188
1663.82,-0.13215
1663.83,-0.13217
1663.84,-0.13195
1663.85,-0.13261
1663.86,-0.13237
1663.87,-0.13175
1663.88,-0.13264
1663.89,-0.13313
1663.9,-0.13235
1663.91,-0.13191
1663.92,-0.13226
1663.93,-0.13207
1663.94,-0.1319
1663.95,-0.13232
1663.96,-0.13216
1663.97,-0.13229
1663.98,-0.13256
1663.99,-0.13211
1664,-0.13171
1664.01,-0.13212
1664.02,-0.13164
1664.03,-0.13195
1664.04,-0.13158
1664.05,-0.13152
1664.06,-0.13182
1664.07,-0.13175
1664.08,-0.13184
1664.09,-0.13209
1664.1,-0.13211
1664.11,-0.13209
1664.12,-0.1314
1664.13,-0.13159
1664.14,-0.13114
1664.15,-0.13118
1664.16,-0.13086
1664.17,-0.13133
1664.18,-0.13105
1664.19,-0.13174
1664.2,-0.1319
1664.21,-0.13151
1664.22,-0.1311
1664.23,-0.13221
1664.24,-0.13116
1664.25,-0.13169
1664.26,-0.13039
1664.27,-0.13104
1664.28,-0.13112
1664.29,-0.131
1664.3,-0.13082
1664.31,-0.13132
1664.32,-0.13162
1664.33,-0.13171
1664.34,-0.13192
1664.35,-0.13108
1664.36,-0.13114
1664.37,-0.13083
1664.38,-0.13052
1664.39,-0.13102
1664.4,-0.13125
1664.41,-0.13102
1664.42,-0.13116
1664.43,-0.13179
1664.44,-0.13208
1664.45,-0.13172
1664.46,-0.13173
1664.47,-0.1313
1664.48,-0.13097
1664.49,-0.13168
1664.5,-0.13175
1664.51,-0.1317
1664.52,-0.13154
1664.53,-0.13193
1664.54,-0.13198
1664.55,-0.13223
1664.56,-0.13245
1664.57,-0.13274
1664.58,-0.13166
1664.59,-0.1323
1664.6,-0.13194
1664.61,-0.1319
1664.62,-0.1325
1664.63,-0.13243
1664.64,-0.13315
1664.65,-0.1329
1664.66,-0.1332
1664.67,-0.13306
1664.68,-0.13252
1664.69,-0.13316
1664.7,-0.13292
1664.71,-0.13279
1664.72,-0.13275
1664.73,-0.13315
1664.74,-0.13295
1664.75,-0.13346
1664.76,-0.1339
1664.77,-0.13343
1664.78,-0.13378
1664.79,-0.13355
1664.8,-0.1333
1664.81,-0.13293
1664.82,-0.13389
1664.83,-0.13322
1664.84,-0.13354
1664.85,-0.13384
1664.86,-0.13307
1664.87,-0.13439
1664.88,-0.13374
1664.89,-0.135
1664.9,-0.13447
1664.91,-0.13375
1664.92,-0.1343
1664.93,-0.13395
1664.94,-0.13452
1664.95,-0.13402
1664.96,-0.13451
1664.97,-0.13412
1664.98,-0.1344
1664.99,-0.13502
1665,-0.135
1665.01,-0.13453
1665.02,-0.13404
1665.03,-0.13387
1665.04,-0.13393
1665.05,-0.13418
1665.06,-0.13378
1665.07,-0.13428
1665.08,-0.13407
1665.09,-0.1345
1665.1,-0.13488
1665.11,-0.13434
1665.12,-0.13432
1665.13,-0.1345
1665.14,-0.13393
1665.15,-0.13393
1665.16,-0.1338
1665.17,-0.13413
1665.18,-0.13371
1665.19,-0.13357
1665.2,-0.13445
1665.21,-0.13418
1665.22,-0.13495
1665.23,-0.13428
1665.24,-0.13429
1665.25,-0.13441
1665.26,-0.13303
1665.27,-0.13386
1665.28,-0.13347
1665.29,-0.13405
1665.3,-0.1335
1665.31,-0.13368
1665.32,-0.13389
1665.33,-0.13381
1665.34,-0.13376
1665.35,-0.13347
1665.36,-0.13342
1665.37,-0.13311
1665.38,-0.13263
1665.39,-0.13314
1665.4,-0.133
1665.41,-0.13304
1665.42,-0.13309
1665.43,-0.13351
1665.44,-0.13343
1665.45,-0.13366
1665.46,-0.13297
1665.47,-0.13298
1665.48,-0.13322
1665.49,-0.13273
1665.5,-0.13343
1665.51,-0.13274
1665.52,-0.13294
1665.53,-0.13255
1665.54,-0.13326
1665.55,-0.13373
1665.56,-0.13369
1665.57,-0.13369
1665.58,-0.1334
1665.59,-0.13334
1665.6,-0.13285
1665.61,-0.13347
1665.62,-0.13312
1665.63,-0.13342
1665.64,-0.13365
1665.65,-0.13377
1665.66,-0.13398
1665.67,-0.13397
1665.68,-0.13297
1665.69,-0.13315
1665.7,-0.13291
1665.71,-0.13268
1665.72,-0.1328
1665.73,-0.1326
1665.74,-0.13284
1665.75,-0.13335
1665.76,-0.13297
1665.77,-0.13293
1665.78,-0.13278
1665.79,-0.13336
1665.8,-0.13283
1665.81,-0.13207
1665.82,-0.13224
1665.83,-0.13255
1665.84,-0.13239
1665.85,-0.13301
1665.86,-0.13307
1665.87,-0.13334
1665.88,-0.13331
1665.89,-0.13333
1665.9,-0.13344
1665.91,-0.13319
1665.92,-0.13315
1665.93,-0.1328
1665.94,-0.13274
1665.95,-0.13276
1665.96,-0.13275
1665.97,-0.13306
1665.98,-0.13316
1665.99,-0.13315
1666,-0.13343
1666.01,-0.13296
1666.02,-0.13339
1666.03,-0.13305
1666.04,-0.13266
1666.05,-0.13276
1666.06,-0.13311
1666.07,-0.13231
1666.08,-0.13345
1666.09,-0.13342
1666.1,-0.13366
1666.11,-0.13425
1666.12,-0.13419
1666.13,-0.13324
1666.14,-0.13382
1666.15,-0.13397
1666.16,-0.13361
1666.17,-0.13373
1666.18,-0.13442
1666.19,-0.13398
1666.2,-0.13375
1666.21,-0.13444
1666.22,-0.13439
1666.23,-0.13373
1666.24,-0.13454
1666.25,-0.13341
1666.26,-0.13331
1666.27,-0.13317
1666.28,-0.13354
1666.29,-0.13342
1666.3,-0.13297
1666.31,-0.13351
1666.32,-0.13385
1666.33,-0.13404
1666.34,-0.13412
1666.35,-0.13362
1666.36,-0.13384
1666.37,-0.13292
1666.38,-0.13274
1666.39,-0.13245
1666.4,-0.13324
1666.41,-0.13331
1666.42,-0.13436
1666.43,-0.13326
1666.44,-0.13381
1666.45,-0.1339
1666.46,-0.13394
1666.47,-0.1337
1666.48,-0.13345
1666.49,-0.13357
1666.5,-0.13346
1666.51,-0.13311
1666.52,-0.13329
1666.53,-0.1331
1666.54,-0.1334
1666.55,-0.13369
1666.56,-0.13383
1666.57,-0.13373
1666.58,-0.1335
1666.59,-0.13297
1666.6,-0.13303
1666.61,-0.13323
1666.62,-0.13292
1666.63,-0.13333
1666.64,-0.13359
1666.65,-0.13426
1666.66,-0.13394
1666.67,-0.13424
1666.68,-0.13435
1666.69,-0.13383
1666.7,-0.13382
1666.71,-0.13384
1666.72,-0.13346
1666.73,-0.13334
1666.74,-0.13303
1666.75,-0.13325
1666.76,-0.13341
1666.77,-0.13298
1666.78,-0.13345
1666.79,-0.13317
1666.8,-0.1328
1666.81,-0.13232
1666.82,-0.13218
1666.83,-0.13255
1666.84,-0.13212
1666.85,-0.13299
1666.86,-0.13265
1666.87,-0.13262
1666.88,-0.13248
1666.89,-0.1331
1666.9,-0.13262
1666.91,-0.13321
1666.92,-0.13262
1666.93,-0.13277
1666.94,-0.13248
1666.95,-0.13252
1666.96,-0.13266
1666.97,-0.13261
1666.98,-0.13286
1666.99,-0.13299
1667,-0.13307
1667.01,-0.13293
1667.02,-0.13268
1667.03,-0.13254
1667.04,-0.13248
1667.05,-0.13227
1667.06,-0.13198
1667.07,-0.13313
1667.08,-0.13332
1667.09,-0.13427
1667.1,-0.13289
1667.11,-0.13384
1667.12,-0.13309
1667.13,-0.13351
1667.14,-0.13288
1667.15,-0.13255
1667.16,-0.13249
1667.17,-0.13207
1667.18,-0.13225
1667.19,-0.132
1667.2,-0.13156
1667.21,-0.13239
1667.22,-0.13214
1667.23,-0.13221
1667.24,-0.13193
1667.25,-0.13175
1667.26,-0.13218
1667.27,-0.13129
1667.28,-0.13178
1667.29,-0.13198
1667.3,-0.1322
1667.31,-0.13181
1667.32,-0.13273
1667.33,-0.1332
1667.34,-0.13234
1667.35,-0.13345
1667.36,-0.13285
1667.37,-0.13264
1667.38,-0.133
1667.39,-0.132
1667.4,-0.13378
1667.41,-0.13278
1667.42,-0.13341
1667.43,-0.13406
1667.44,-0.13352
1667.45,-0.13415
1667.46,-0.134
1667.47,-0.13319
1667.48,-0.13276
1667.49,-0.13268
1667.5,-0.1319
1667.51,-0.13208
1667.52,-0.13242
1667.53,-0.13201
1667.54,-0.13249
1667.55,-0.13258
1667.56,-0.13266
1667.57,-0.13236
1667.58,-0.13189
1667.59,-0.13214
1667.6,-0.1311
1667.61,-0.13126
1667.62,-0.13135
1667.63,-0.13166
1667.64,-0.13184
1667.65,-0.13245
1667.66,-0.13228
1667.67,-0.13203
1667.68,-0.13222
1667.69,-0.13212
1667.7,-0.1324
1667.71,-0.13156
1667.72,-0.13255
1667.73,-0.13214
1667.74,-0.13309
1667.75,-0.13274
1667.76,-0.13329
1667.77,-0.13322
1667.78,-0.13362
1667.79,-0.13272
1667.8,-0.13226
1667.81,-0.13193
1667.82,-0.13151
1667.83,-0.13189
1667.84,-0.13096
1667.85,-0.13121
1667.86,-0.13191
1667.87,-0.13152
1667.88,-0.13136
1667.89,-0.13164
1667.9,-0.13157
1667.91,-0.13165
1667.92,-0.13135
1667.93,-0.13131
1667.94,-0.1313
1667.95,-0.13119
1667.96,-0.13161
1667.97,-0.13199
1667.98,-0.13232
1667.99,-0.13274
1668,-0.13327
1668.01,-0.1331
1668.02,-0.13354
1668.03,-0.13322
1668.04,-0.13289
1668.05,-0.13259
1668.06,-0.13195
1668.07,-0.13286
1668.08,-0.13194
1668.09,-0.13254
1668.1,-0.13312
1668.11,-0.13227
1668.12,-0.13279
1668.13,-0.13307
1668.14,-0.1326
1668.15,-0.1319
1668.16,-0.13187
1668.17,-0.13255
1668.18,-0.13216
1668.19,-0.13306
1668.2,-0.13303
1668.21,-0.13328
1668.22,-0.13422
1668.23,-0.13342
1668.24,-0.13198
1668.25,-0.13435
1668.26,-0.1329
1668.27,-0.13248
1668.28,-0.13277
1668.29,-0.13294
1668.3,-0.13326
1668.31,-0.13382
1668.32,-0.1334
1668.33,-0.1338
1668.34,-0.13421
1668.35,-0.13438
1668.36,-0.13362
1668.37,-0.13416
1668.38,-0.13341
1668.39,-0.13335
1668.4,-0.13275
1668.41,-0.13338
1668.42,-0.13343
1668.43,-0.13334
1668.44,-0.13355
1668.45,-0.13431
1668.46,-0.13336
1668.47,-0.13317
1668.48,-0.13331
1668.49,-0.13278
1668.5,-0.13373
1668.51,-0.13347
1668.52,-0.13296
1668.53,-0.13368
1668.54,-0.13287
1668.55,-0.13388
1668.56,-0.13407
1668.57,-0.13403
1668.58,-0.13358
1668.59,-0.13411
1668.6,-0.13341
1668.61,-0.1335
1668.62,-0.13327
1668.63,-0.13348
1668.64,-0.13409
1668.65,-0.13421
1668.66,-0.13423
1668.67,-0.1346
1668.68,-0.13496
1668.69,-0.1345
1668.7,-0.13434
1668.71,-0.13477
1668.72,-0.1353
1668.73,-0.13386
1668.74,-0.13404
1668.75,-0.13542
1668.76,-0.13465
1668.77,-0.13488
1668.78,-0.13488
1668.79,-0.13549
1668.8,-0.13483
1668.81,-0.13392
1668.82,-0.13404
1668.83,-0.13322
1668.84,-0.13314
1668.85,-0.13309
1668.86,-0.13377
1668.87,-0.13379
1668.88,-0.13345
1668.89,-0.13382
1668.9,-0.13397
1668.91,-0.13379
1668.92,-0.1333
1668.93,-0.13288
1668.94,-0.13364
1668.95,-0.13264
1668.96,-0.13345
1668.97,-0.13332
1668.98,-0.1334
1668.99,-0.13372
1669,-0.1343
1669.01,-0.13341
1669.02,-0.13352
1669.03,-0.13323
1669.04,-0.1331
1669.05,-0.13347
1669.06,-0.13351
1669.07,-0.13232
1669.08,-0.13286
1669.09,-0.13287
1669.1,-0.13284
1669.11,-0.13312
1669.12,-0.13329
1669.13,-0.13292
1669.14,-0.13337
1669.15,-0.13265
1669.16,-0.13252
1669.17,-0.13226
1669.18,-0.13306
1669.19,-0.13276
1669.2,-0.13333
1669.21,-0.13341
1669.22,-0.13358
1669.23,-0.13368
1669.24,-0.13462
1669.25,-0.13386
1669.26,-0.13372
1669.27,-0.13454
1669.28,-0.13401
1669.29,-0.13467
1669.3,-0.1349
1669.31,-0.13498
1669.32,-0.13548
1669.33,-0.13513
1669.34,-0.1349
1669.35,-0.13537
1669.36,-0.13412
1669.37,-0.13374
1669.38,-0.13435
1669.39,-0.13384
1669.4,-0.13368
1669.41,-0.13334
1669.42,-0.13383
1669.43,-0.13404
1669.44,-0.13373
1669.45,-0.13371
1669.46,-0.13406
1669.47,-0.13397
1669.48,-0.13452
1669.49,-0.133
1669.5,-0.13396
1669.51,-0.13344
1669.52,-0.13388
1669.53,-0.13432
1669.54,-0.13458
1669.55,-0.13555
1669.56,-0.13497
1669.57,-0.13515
1669.58,-0.13527
1669.59,-0.13485
1669.6,-0.13525
1669.61,-0.13418
1669.62,-0.13544
1669.63,-0.13511
1669.64,-0.1343
1669.65,-0.13455
1669.66,-0.13544
1669.67,-0.1352
1669.68,-0.13512
1669.69,-0.13503
1669.7,-0.13492
1669.71,-0.13475
1669.72,-0.13525
1669.73,-0.13506
1669.74,-0.13559
1669.75,-0.13517
1669.76,-0.13645
1669.77,-0.13681
1669.78,-0.13728
1669.79,-0.1374
1669.8,-0.13755
1669.81,-0.13733
1669.82,-0.13712
1669.83,-0.13593
1669.84,-0.13615
1669.85,-0.1356
1669.86,-0.13492
1669.87,-0.13508
1669.88,-0.13484
1669.89,-0.13483
1669.9,-0.13426
1669.91,-0.13473
1669.92,-0.13422
1669.93,-0.13454
1669.94,-0.13359
1669.95,-0.13418
1669.96,-0.13346
1669.97,-0.13342
1669.98,-0.13556
1669.99,-0.13404
1670,-0.13326
1670.01,-0.13455
1670.02,-0.13477
1670.03,-0.13447
1670.04,-0.13436
1670.05,-0.13457
1670.06,-0.13429
1670.07,-0.13462
1670.08,-0.13488
1670.09,-0.1352
1670.1,-0.13518
1670.11,-0.13542
1670.12,-0.13482
1670.13,-0.13495
1670.14,-0.13443
1670.15,-0.13498
1670.16,-0.13509
1670.17,-0.13453
1670.18,-0.13489
1670.19,-0.13523
1670.2,-0.13566
1670.21,-0.13651
1670.22,-0.13679
1670.23,-0.13483
1670.24,-0.13699
1670.25,-0.13515
1670.26,-0.13542
1670.27,-0.13369
1670.28,-0.13304
1670.29,-0.13388
1670.3,-0.1324
1670.31,-0.13288
1670.32,-0.13252
1670.33,-0.13276
1670.34,-0.13217
1670.35,-0.13272
1670.36,-0.13203
1670.37,-0.13213
1670.38,-0.13194
1670.39,-0.13176
1670.4,-0.13183
1670.41,-0.13196
1670.42,-0.13161
1670.43,-0.13248
1670.44,-0.1326
1670.45,-0.13269
1670.46,-0.13278
1670.47,-0.13363
1670.48,-0.13341
1670.49,-0.13387
1670.5,-0.13342
1670.51,-0.13421
1670.52,-0.13388
1670.53,-0.13398
1670.54,-0.13503
1670.55,-0.13509
1670.56,-0.13551
1670.57,-0.13547
1670.58,-0.13527
1670.59,-0.1348
1670.6,-0.13456
1670.61,-0.13333
1670.62,-0.13258
1670.63,-0.13259
1670.64,-0.13231
1670.65,-0.13182
1670.66,-0.13233
1670.67,-0.13159
1670.68,-0.13172
1670.69,-0.13155
1670.7,-0.13125
1670.71,-0.13134
1670.72,-0.13132
1670.73,-0.13101
1670.74,-0.13125
1670.75,-0.13124
1670.76,-0.1315
1670.77,-0.13198
1670.78,-0.1318
1670.79,-0.1324
1670.8,-0.13214
1670.81,-0.13203
1670.82,-0.13295
1670.83,-0.13221
1670.84,-0.13299
1670.85,-0.13314
1670.86,-0.13363
1670.87,-0.13419
1670.88,-0.13432
1670.89,-0.13524
1670.9,-0.13441
1670.91,-0.13441
1670.92,-0.13378
1670.93,-0.13346
1670.94,-0.13263
1670.95,-0.1322
1670.96,-0.13198
1670.97,-0.13127
1670.98,-0.13136
1670.99,-0.13176
1671,-0.13187
1671.01,-0.13161
1671.02,-0.13168
1671.03,-0.13143
1671.04,-0.13147
1671.05,-0.13114
1671.06,-0.13163
1671.07,-0.13186
1671.08,-0.13207
1671.09,-0.13275
1671.1,-0.13315
1671.11,-0.13388
1671.12,-0.13432
1671.13,-0.13411
1671.14,-0.13459
1671.15,-0.13476
1671.16,-0.13403
1671.17,-0.13386
1671.18,-0.13326
1671.19,-0.13284
1671.2,-0.13268
1671.21,-0.13278
1671.22,-0.13227
1671.23,-0.13304
1671.24,-0.13223
1671.25,-0.13202
1671.26,-0.13246
1671.27,-0.13229
1671.28,-0.13151
1671.29,-0.13225
1671.3,-0.13191
1671.31,-0.1322
1671.32,-0.13263
1671.33,-0.13269
1671.34,-0.13343
1671.35,-0.13293
1671.36,-0.13298
1671.37,-0.13224
1671.38,-0.13222
1671.39,-0.13185
1671.4,-0.13191
1671.41,-0.13166
1671.42,-0.13178
1671.43,-0.13398
1671.44,-0.14239
1671.45,-0.16576
1671.46,-0.21369
1671.47,-0.29179
1671.48,-0.40252
1671.49,-0.5361
1671.5,-0.68436
1671.51,-0.81991
1671.52,-0.92938
1671.53,-0.98715
1671.54,-0.9851
1671.55,-0.9181
1671.56,-0.8099
1671.57,-0.66854
1671.58,-0.51542
1671.59,-0.38571
1671.6,-0.28012
1671.61,-0.21016
1671.62,-0.1696
1671.63,-0.14686
1671.64,-0.13582
1671.65,-0.1312
1671.66,-0.12986
1671.67,-0.12967
1671.68,-0.12983
1671.69,-0.12918
1671.7,-0.1292
1671.71,-0.12878
1671.72,-0.12812
1671.73,-0.12895
1671.74,-0.12818
1671.75,-0.12875
1671.76,-0.12912
1671.77,-0.12917
1671.78,-0.12938
1671.79,-0.12928
1671.8,-0.12956
1671.81,-0.13013
1671.82,-0.12965
1671.83,-0.13023
1671.84,-0.13017
1671.85,-0.1303
1671.86,-0.12987
1671.87,-0.13045
1671.88,-0.12999
1671.89,-0.13091
1671.9,-0.1304
1671.91,-0.13007
1671.92,-0.13014
1671.93,-0.13049
1671.94,-0.12954
1671.95,-0.12968
1671.96,-0.12921
1671.97,-0.12919
1671.98,-0.12855
1671.99,-0.129
1672,-0.12989
1672.01,-0.12936
1672.02,-0.12985
1672.03,-0.12922
1672.04,-0.12975
1672.05,-0.12873
1672.06,-0.1292
1672.07,-0.12951
1672.08,-0.12935
1672.09,-0.12934
1672.1,-0.12998
1672.11,-0.13009
1672.12,-0.12956
1672.13,-0.13015
1672.14,-0.12969
1672.15,-0.13007
1672.16,-0.13053
1672.17,-0.12935
1672.18,-0.13
1672.19,-0.12969
1672.2,-0.12954
1672.21,-0.12948
1672.22,-0.12933
1672.23,-0.12986
1672.24,-0.12975
1672.25,-0.12982
1672.26,-0.12916
1672.27,-0.12923
1672.28,-0.12896
1672.29,-0.12879
1672.3,-0.12868
1672.31,-0.12904
1672.32,-0.12945
1672.33,-0.1291
1672.34,-0.12984
1672.35,-0.12997
1672.36,-0.12987
1672.37,-0.13003
1672.38,-0.1298
1672.39,-0.13018
1672.4,-0.12996
1672.41,-0.13121
1672.42,-0.13105
1672.43,-0.13151
1672.44,-0.13154
1672.45,-0.1323
1672.46,-0.13223
1672.47,-0.13153
1672.48,-0.1312
1672.49,-0.13094
1672.5,-0.13072
1672.51,-0.12989
1672.52,-0.12986
1672.53,-0.12904
1672.54,-0.12907
1672.55,-0.12962
1672.56,-0.12888
1672.57,-0.12915
1672.58,-0.12852
1672.59,-0.12928
1672.6,-0.12869
1672.61,-0.12842
1672.62,-0.12876
1672.63,-0.12823
1672.64,-0.1285
1672.65,-0.12884
1672.66,-0.12904
1672.67,-0.1292
1672.68,-0.12982
1672.69,-0.12958
1672.7,-0.13014
1672.71,-0.12993
1672.72,-0.12975
1672.73,-0.13025
1672.74,-0.12912
1672.75,-0.1303
1672.76,-0.1291
1672.77,-0.13022
1672.78,-0.13045
1672.79,-0.12967
1672.8,-0.12984
1672.81,-0.1295
1672.82,-0.12968
1672.83,-0.12932
1672.84,-0.12966
1672.85,-0.1295
1672.86,-0.12956
1672.87,-0.13069
1672.88,-0.13123
1672.89,-0.13107
1672.9,-0.13252
1672.91,-0.13235
1672.92,-0.13273
1672.93,-0.13352
1672.94,-0.13342
1672.95,-0.1333
1672.96,-0.13345
1672.97,-0.13331
1672.98,-0.13301
1672.99,-0.13231
1673,-0.13185
1673.01,-0.13139
1673.02,-0.13091
1673.03,-0.13027
1673.04,-0.13038
1673.05,-0.12991
1673.06,-0.12908
1673.07,-0.12959
1673.08,-0.12869
1673.09,-0.12962
1673.1,-0.12913
1673.11,-0.12963
1673.12,-0.12944
1673.13,-0.13032
1673.14,-0.13005
1673.15,-0.12957
1673.16,-0.12969
1673.17,-0.12999
1673.18,-0.12988
1673.19,-0.13041
1673.2,-0.13013
1673.21,-0.13156
1673.22,-0.13075
1673.23,-0.1323
1673.24,-0.13139
1673.25,-0.13207
1673.26,-0.13183
1673.27,-0.13138
1673.28,-0.13166
1673.29,-0.13154
1673.3,-0.13131
1673.31,-0.13163
1673.32,-0.13199
1673.33,-0.13259
1673.34,-0.1334
1673.35,-0.1342
1673.36,-0.13439
1673.37,-0.13443
1673.38,-0.13496
1673.39,-0.13455
1673.4,-0.13285
1673.41,-0.13268
1673.42,-0.1321
1673.43,-0.13139
1673.44,-0.13126
1673.45,-0.13055
1673.46,-0.13024
1673.47,-0.12969
1673.48,-0.13007
1673.49,-0.12911
1673.5,-0.12905
1673.51,-0.12894
1673.52,-0.12849
1673.53,-0.12924
1673.54,-0.12918
1673.55,-0.12926
1673.56,-0.12918
1673.57,-0.12977
1673.58,-0.12967
1673.59,-0.12984
1673.6,-0.13033
1673.61,-0.13005
1673.62,-0.13092
1673.63,-0.13123
1673.64,-0.1313
1673.65,-0.13229
1673.66,-0.13314
1673.67,-0.13315
1673.68,-0.13361
1673.69,-0.13394
1673.7,-0.13401
1673.71,-0.13458
1673.72,-0.13465
1673.73,-0.1344
1673.74,-0.13359
1673.75,-0.13274
1673.76,-0.1331
1673.77,-0.13178
1673.78,-0.13054
1673.79,-0.12988
1673.8,-0.12972
1673.81,-0.12885
1673.82,-0.12877
1673.83,-0.12829
1673.84,-0.12788
1673.85,-0.12809
1673.86,-0.12813
1673.87,-0.12747
1673.88,-0.12806
1673.89,-0.12814
1673.9,-0.12842
1673.91,-0.12835
1673.92,-0.12826
1673.93,-0.12845
1673.94,-0.12867
1673.95,-0.12839
1673.96,-0.12886
1673.97,-0.12879
1673.98,-0.13055
1673.99,-0.12961
1674,-0.13084
1674.01,-0.13152
1674.02,-0.1326
1674.03,-0.13303
1674.04,-0.13347
1674.05,-0.13345
1674.06,-0.13294
1674.07,-0.13208
1674.08,-0.13111
1674.09,-0.13134
1674.1,-0.13035
1674.11,-0.12987
1674.12,-0.12933
1674.13,-0.12913
1674.14,-0.12876
1674.15,-0.12911
1674.16,-0.12849
1674.17,-0.12906
1674.18,-0.12794
1674.19,-0.12811
1674.2,-0.12863
1674.21,-0.12935
1674.22,-0.12887
1674.23,-0.13031
1674.24,-0.1309
1674.25,-0.13129
1674.26,-0.13188
1674.27,-0.13306
1674.28,-0.13291
1674.29,-0.13363
1674.3,-0.13394
1674.31,-0.13338
1674.32,-0.13272
1674.33,-0.13293
1674.34,-0.13225
1674.35,-0.13154
1674.36,-0.13117
1674.37,-0.13093
1674.38,-0.13062
1674.39,-0.13015
1674.4,-0.13061
1674.41,-0.1305
1674.42,-0.13023
1674.43,-0.13043
1674.44,-0.13046
1674.45,-0.13056
1674.46,-0.13085
1674.47,-0.1316
1674.48,-0.1321
1674.49,-0.1321
1674.5,-0.13223
1674.51,-0.13263
1674.52,-0.13286
1674.53,-0.13196
1674.54,-0.13145
1674.55,-0.13525
1674.56,-0.14982
1674.57,-0.18952
1674.58,-0.27277
1674.59,-0.4255
1674.6,-0.65914
1674.61,-0.93777
1674.62,-1.25346
1674.63,-1.5316
1674.64,-1.7415
1674.65,-1.85514
1674.66,-1.86585
1674.67,-1.78155
1674.68,-1.60614
1674.69,-1.34963
1674.7,-1.06753
1674.71,-0.78306
1674.72,-0.54308
1674.73,-0.3663
1674.74,-0.25021
1674.75,-0.18181
1674.76,-0.14989
1674.77,-0.13593
1674.78,-0.13188
1674.79,-0.13041
1674.8,-0.12997
1674.81,-0.13002
1674.82,-0.12935
1674.83,-0.12959
1674.84,-0.12921
1674.85,-0.12947
1674.86,-0.12849
1674.87,-0.12883
1674.88,-0.12885
1674.89,-0.12866
1674.9,-0.12908
1674.91,-0.12889
1674.92,-0.1298
1674.93,-0.1292
1674.94,-0.12911
1674.95,-0.13018
1674.96,-0.1293
1674.97,-0.12964
1674.98,-0.12933
1674.99,-0.13021
1675,-0.13029
1675.01,-0.13017
1675.02,-0.13
1675.03,-0.13035
1675.04,-0.12986
1675.05,-0.13007
1675.06,-0.13003
1675.07,-0.12939
1675.08,-0.12953
1675.09,-0.12919
1675.1,-0.12836
1675.11,-0.12869
1675.12,-0.1285
1675.13,-0.12803
1675.14,-0.12861
1675.15,-0.12769
1675.16,-0.1279
1675.17,-0.12764
1675.18,-0.12721
1675.19,-0.12709
1675.2,-0.1271
1675.21,-0.12702
1675.22,-0.12726
1675.23,-0.1272
1675.24,-0.12755
1675.25,-0.12723
1675.26,-0.12717
1675.27,-0.12769
1675.28,-0.12734
1675.29,-0.12766
1675.3,-0.12715
1675.31,-0.12777
1675.32,-0.1274
1675.33,-0.12725
1675.34,-0.12772
1675.35,-0.12712
1675.36,-0.12702
1675.37,-0.12709
1675.38,-0.12729
1675.39,-0.12692
1675.4,-0.12665
1675.41,-0.12687
1675.42,-0.12665
1675.43,-0.12618
1675.44,-0.12663
1675.45,-0.12649
1675.46,-0.12614
1675.47,-0.12668
1675.48,-0.12663
1675.49,-0.12676
1675.5,-0.12658
1675.51,-0.12669
1675.52,-0.12713
1675.53,-0.12705
1675.54,-0.12752
1675.55,-0.12809
1675.56,-0.1287
1675.57,-0.12932
1675.58,-0.12957
1675.59,-0.12986
1675.6,-0.12986
1675.61,-0.13085
1675.62,-0.13005
1675.63,-0.12999
1675.64,-0.12941
1675.65,-0.1296
1675.66,-0.12897
1675.67,-0.12913
1675.68,-0.12911
1675.69,-0.1282
1675.7,-0.12861
1675.71,-0.12778
1675.72,-0.1274
1675.73,-0.12831
1675.74,-0.12717
1675.75,-0.12783
1675.76,-0.12776
1675.77,-0.1279
1675.78,-0.12783
1675.79,-0.12729
1675.8,-0.12809
1675.81,-0.12773
1675.82,-0.12832
1675.83,-0.12819
1675.84,-0.12878
1675.85,-0.12837
1675.86,-0.12865
1675.87,-0.12914
1675.88,-0.12886
1675.89,-0.12963
1675.9,-0.12917
1675.91,-0.12924
1675.92,-0.12945
1675.93,-0.12943
1675.94,-0.12887
1675.95,-0.1292
1675.96,-0.1285
1675.97,-0.12856
1675.98,-0.1291
1675.99,-0.12846
1676,-0.12878
1676.01,-0.1291
1676.02,-0.12938
1676.03,-0.12898
1676.04,-0.12979
1676.05,-0.12972
1676.06,-0.13074
1676.07,-0.1309
1676.08,-0.13228
1676.09,-0.13212
1676.1,-0.13228
1676.11,-0.1321
1676.12,-0.13198
1676.13,-0.13205
1676.14,-0.13081
1676.15,-0.13051
1676.16,-0.12932
1676.17,-0.12851
1676.18,-0.12798
1676.19,-0.12745
1676.2,-0.12657
1676.21,-0.12656
1676.22,-0.12609
1676.23,-0.12553
1676.24,-0.1256
1676.25,-0.12599
1676.26,-0.12524
1676.27,-0.12532
1676.28,-0.12521
1676.29,-0.12504
1676.3,-0.12448
1676.31,-0.12473
1676.32,-0.12461
1676.33,-0.1253
1676.34,-0.12539
1676.35,-0.12578
1676.36,-0.12574
1676.37,-0.1256
1676.38,-0.1263
1676.39,-0.12567
1676.4,-0.12631
1676.41,-0.12661
1676.42,-0.12647
1676.43,-0.1265
1676.44,-0.12645
1676.45,-0.12608
1676.46,-0.12646
1676.47,-0.12659
1676.48,-0.12647
1676.49,-0.127
1676.5,-0.12828
1676.51,-0.12885
1676.52,-0.12926
1676.53,-0.12985
1676.54,-0.12963
1676.55,-0.12987
1676.56,-0.12938
1676.57,-0.12837
1676.58,-0.12816
1676.59,-0.12742
1676.6,-0.12606
1676.61,-0.12552
1676.62,-0.12473
1676.63,-0.12456
1676.64,-0.12408
1676.65,-0.12412
1676.66,-0.12366
1676.67,-0.1234
1676.68,-0.12377
1676.69,-0.12371
1676.7,-0.12377
1676.71,-0.1243
1676.72,-0.12414
1676.73,-0.12406
1676.74,-0.12417
1676.75,-0.12407
1676.76,-0.12427
1676.77,-0.12532
1676.78,-0.12613
1676.79,-0.12642
1676.8,-0.12701
1676.81,-0.12736
1676.82,-0.12868
1676.83,-0.12891
1676.84,-0.12956
1676.85,-0.13029
1676.86,-0.1306
1676.87,-0.13129
1676.88,-0.13123
1676.89,-0.13102
1676.9,-0.13084
1676.91,-0.13042
1676.92,-0.12936
1676.93,-0.12842
1676.94,-0.12776
1676.95,-0.12628
1676.96,-0.1254
1676.97,-0.12561
1676.98,-0.12506
1676.99,-0.12364
1677,-0.1245
1677.01,-0.12405
1677.02,-0.12411
1677.03,-0.12395
1677.04,-0.1243
1677.05,-0.12393
1677.06,-0.12391
1677.07,-0.12399
1677.08,-0.12387
1677.09,-0.12436
1677.1,-0.12371
1677.11,-0.12397
1677.12,-0.12482
1677.13,-0.12465
1677.14,-0.12518
1677.15,-0.12549
1677.16,-0.12646
1677.17,-0.12742
1677.18,-0.12835
1677.19,-0.12901
1677.2,-0.12973
1677.21,-0.12919
1677.22,-0.13101
1677.23,-0.12914
1677.24,-0.12853
1677.25,-0.1273
1677.26,-0.12746
1677.27,-0.12638
1677.28,-0.12563
1677.29,-0.12519
1677.3,-0.12479
1677.31,-0.12454
1677.32,-0.12469
1677.33,-0.12402
1677.34,-0.12422
1677.35,-0.12423
1677.36,-0.124
1677.37,-0.12391
1677.38,-0.12444
1677.39,-0.12455
1677.4,-0.12468
1677.41,-0.12546
1677.42,-0.12618
1677.43,-0.12694
1677.44,-0.1277
1677.45,-0.12855
1677.46,-0.1286
1677.47,-0.12887
1677.48,-0.12867
1677.49,-0.12786
1677.5,-0.12716
1677.51,-0.12679
1677.52,-0.12653
1677.53,-0.126
1677.54,-0.1254
1677.55,-0.12587
1677.56,-0.12561
1677.57,-0.12627
1677.58,-0.12609
1677.59,-0.12596
1677.6,-0.1258
1677.61,-0.12563
1677.62,-0.12596
1677.63,-0.126
1677.64,-0.12605
1677.65,-0.12681
1677.66,-0.12763
1677.67,-0.1283
1677.68,-0.12844
1677.69,-0.12689
1677.7,-0.12742
1677.71,-0.13842
1677.72,-0.18009
1677.73,-0.28959
1677.74,-0.48973
1677.75,-0.78878
1677.76,-1.16213
1677.77,-1.59382
1677.78,-2.00465
1677.79,-2.35007
1677.8,-2.58371
1677.81,-2.69143
1677.82,-2.67168
1677.83,-2.50693
1677.84,-2.20842
1677.85,-1.82372
1677.86,-1.39455
1677.87,-0.99056
1677.88,-0.65266
1677.89,-0.42117
1677.9,-0.27407
1677.91,-0.19375
1677.92,-0.15126
1677.93,-0.13306
1677.94,-0.12807
1677.95,-0.12614
1677.96,-0.12556
1677.97,-0.12573
1677.98,-0.12546
1677.99,-0.12522
1678,-0.12465
1678.01,-0.12428
1678.02,-0.12386
1678.03,-0.12411
1678.04,-0.12449
1678.05,-0.12389
1678.06,-0.12453
1678.07,-0.12414
1678.08,-0.12398
1678.09,-0.1246
1678.1,-0.12433
1678.11,-0.12453
1678.12,-0.12429
1678.13,-0.12469
1678.14,-0.12417
1678.15,-0.12501
1678.16,-0.12498
1678.17,-0.12553
1678.18,-0.1255
1678.19,-0.12595
1678.2,-0.12614
1678.21,-0.12662
1678.22,-0.12684
1678.23,-0.12731
1678.24,-0.12729
1678.25,-0.12755
1678.26,-0.12732
1678.27,-0.12701
1678.28,-0.12663
1678.29,-0.12672
1678.3,-0.12623
1678.31,-0.12656
1678.32,-0.12537
1678.33,-0.12549
1678.34,-0.12541
1678.35,-0.12421
1678.36,-0.12549
1678.37,-0.12468
1678.38,-0.12453
1678.39,-0.12421
1678.4,-0.12443
1678.41,-0.12481
1678.42,-0.12403
1678.43,-0.12425
1678.44,-0.12463
1678.45,-0.12407
1678.46,-0.12434
1678.47,-0.1241
1678.48,-0.12542
1678.49,-0.12482
1678.5,-0.12503
1678.51,-0.12541
1678.52,-0.12547
1678.53,-0.12571
1678.54,-0.12561
1678.55,-0.12561
1678.56,-0.12544
1678.57,-0.1251
1678.58,-0.12517
1678.59,-0.12484
1678.6,-0.12591
1678.61,-0.12471
1678.62,-0.12448
1678.63,-0.12441
1678.64,-0.12463
1678.65,-0.12455
1678.66,-0.12409
1678.67,-0.12412
1678.68,-0.124
1678.69,-0.12488
1678.7,-0.124
1678.71,-0.12543
1678.72,-0.1245
1678.73,-0.12512
1678.74,-0.1255
1678.75,-0.12562
1678.76,-0.12685
1678.77,-0.12677
1678.78,-0.12833
1678.79,-0.12783
1678.8,-0.1291
1678.81,-0.12931
1678.82,-0.12982
1678.83,-0.13019
1678.84,-0.1302
1678.85,-0.12904
1678.86,-0.12907
1678.87,-0.12858
1678.88,-0.12813
1678.89,-0.12754
1678.9,-0.12677
1678.91,-0.12622
1678.92,-0.12572
1678.93,-0.12545
1678.94,-0.12469
1678.95,-0.12491
1678.96,-0.12432
1678.97,-0.12457
1678.98,-0.12402
1678.99,-0.1241
1679,-0.12464
1679.01,-0.12409
1679.02,-0.124
1679.03,-0.12387
1679.04,-0.1245
1679.05,-0.12434
1679.06,-0.1249
1679.07,-0.12474
1679.08,-0.12516
1679.09,-0.12574
1679.1,-0.12603
1679.11,-0.12609
1679.12,-0.12603
1679.13,-0.12629
1679.14,-0.12609
1679.15,-0.12632
1679.16,-0.12549
1679.17,-0.12573
1679.18,-0.1256
1679.19,-0.12529
1679.2,-0.12521
1679.21,-0.12495
1679.22,-0.12551
1679.23,-0.12553
1679.24,-0.12564
1679.25,-0.12601
1679.26,-0.12683
1679.27,-0.12753
1679.28,-0.12896
1679.29,-0.12997
1679.3,-0.13048
1679.31,-0.1325
1679.32,-0.1325
1679.33,-0.13282
1679.34,-0.13305
1679.35,-0.13332
1679.36,-0.13201
1679.37,-0.13151
1679.38,-0.13026
1679.39,-0.12857
1679.4,-0.12848
1679.41,-0.1269
1679.42,-0.12625
1679.43,-0.12616
1679.44,-0.1257
1679.45,-0.12486
1679.46,-0.1247
1679.47,-0.12515
1679.48,-0.12403
1679.49,-0.12407
1679.5,-0.12428
1679.51,-0.12405
1679.52,-0.12388
1679.53,-0.12466
1679.54,-0.12445
1679.55,-0.12482
1679.56,-0.12489
1679.57,-0.1248
1679.58,-0.12544
1679.59,-0.12621
1679.6,-0.12632
1679.61,-0.1271
1679.62,-0.12712
1679.63,-0.12751
1679.64,-0.12775
1679.65,-0.12816
1679.66,-0.12805
1679.67,-0.12791
1679.68,-0.12779
1679.69,-0.12797
1679.7,-0.12807
1679.71,-0.12897
1679.72,-0.12984
1679.73,-0.1308
1679.74,-0.13135
1679.75,-0.1333
1679.76,-0.13334
1679.77,-0.13342
1679.78,-0.13323
1679.79,-0.13141
1679.8,-0.13091
1679.81,-0.12948
1679.82,-0.12797
1679.83,-0.12676
1679.84,-0.12577
1679.85,-0.12469
1679.86,-0.12405
1679.87,-0.12311
1679.88,-0.12321
1679.89,-0.12254
1679.9,-0.1224
1679.91,-0.1226
1679.92,-0.12251
1679.93,-0.12229
1679.94,-0.12173
1679.95,-0.12216
1679.96,-0.12214
1679.97,-0.12255
1679.98,-0.12164
1679.99,-0.1237
1680,-0.12291
