3/04/2024,3:10:54 PM
Software,STS IL/PDL,IL,Normal,1.3.3.0
TSL,SANTEC,TSL-570,23020004,0022.0017.0009
PowerMeter,SANTEC,MPM-210H,23020023,Ver.1.19
,Module0,MPM-211,23020025M211,Ver.1.22
Power Monitor,DAQ
Start,1600,nm
Stop,1680,nm
Step,0.01,nm
Speed,20,nm/s
Source Power,10,dBm
Averaging Time,0.5,msec
Power meter range,23020025M211,(Ch1),-30～+10dBm,-40～ 0dBm
--HEADER END--
--DATA START--
Wavelength(nm),IL_M1_S0_CH1
1600,-0.18715
1600.01,-0.18754
1600.02,-0.18713
1600.03,-0.1881
1600.04,-0.18697
1600.05,-0.18714
1600.06,-0.18781
1600.07,-0.18721
1600.08,-0.18736
1600.09,-0.18717
1600.1,-0.18749
1600.11,-0.18723
1600.12,-0.18709
1600.13,-0.18722
1600.14,-0.18758
1600.15,-0.18702
1600.16,-0.18746
1600.17,-0.18726
1600.18,-0.18746
1600.19,-0.18736
1600.2,-0.18747
1600.21,-0.18706
1600.22,-0.18753
1600.23,-0.18748
1600.24,-0.1872
1600.25,-0.18809
1600.26,-0.18687
1600.27,-0.1869
1600.28,-0.18739
1600.29,-0.18757
1600.3,-0.18744
1600.31,-0.18747
1600.32,-0.18744
1600.33,-0.18742
1600.34,-0.18747
1600.35,-0.18774
1600.36,-0.18678
1600.37,-0.18684
1600.38,-0.18745
1600.39,-0.18713
1600.4,-0.18739
1600.41,-0.18704
1600.42,-0.18762
1600.43,-0.18777
1600.44,-0.18719
1600.45,-0.18653
1600.46,-0.187
1600.47,-0.18715
1600.48,-0.18667
1600.49,-0.18711
1600.5,-0.18722
1600.51,-0.18707
1600.52,-0.18749
1600.53,-0.18703
1600.54,-0.18717
1600.55,-0.187
1600.56,-0.18751
1600.57,-0.18681
1600.58,-0.1868
1600.59,-0.18727
1600.6,-0.18726
1600.61,-0.18689
1600.62,-0.18726
1600.63,-0.18715
1600.64,-0.18669
1600.65,-0.18706
1600.66,-0.18701
1600.67,-0.18705
1600.68,-0.18687
1600.69,-0.18692
1600.7,-0.18683
1600.71,-0.18737
1600.72,-0.18644
1600.73,-0.18702
1600.74,-0.18626
1600.75,-0.18715
1600.76,-0.18671
1600.77,-0.18672
1600.78,-0.18696
1600.79,-0.18652
1600.8,-0.18659
1600.81,-0.18673
1600.82,-0.18659
1600.83,-0.18646
1600.84,-0.18676
1600.85,-0.18623
1600.86,-0.18671
1600.87,-0.18644
1600.88,-0.18679
1600.89,-0.18673
1600.9,-0.18689
1600.91,-0.18759
1600.92,-0.1864
1600.93,-0.18636
1600.94,-0.18676
1600.95,-0.18711
1600.96,-0.18719
1600.97,-0.18676
1600.98,-0.18682
1600.99,-0.18717
1601,-0.18696
1601.01,-0.1872
1601.02,-0.18653
1601.03,-0.18743
1601.04,-0.18731
1601.05,-0.1869
1601.06,-0.18699
1601.07,-0.18698
1601.08,-0.18701
1601.09,-0.18697
1601.1,-0.18728
1601.11,-0.18722
1601.12,-0.18716
1601.13,-0.18692
1601.14,-0.18683
1601.15,-0.18719
1601.16,-0.18718
1601.17,-0.18717
1601.18,-0.18723
1601.19,-0.18746
1601.2,-0.1878
1601.21,-0.1868
1601.22,-0.18793
1601.23,-0.18783
1601.24,-0.18751
1601.25,-0.1875
1601.26,-0.18728
1601.27,-0.18761
1601.28,-0.18746
1601.29,-0.18709
1601.3,-0.18772
1601.31,-0.18768
1601.32,-0.18771
1601.33,-0.18771
1601.34,-0.18771
1601.35,-0.18754
1601.36,-0.18763
1601.37,-0.18744
1601.38,-0.18721
1601.39,-0.18732
1601.4,-0.18736
1601.41,-0.1877
1601.42,-0.18734
1601.43,-0.18743
1601.44,-0.18774
1601.45,-0.18701
1601.46,-0.1878
1601.47,-0.18747
1601.48,-0.18755
1601.49,-0.18759
1601.5,-0.18724
1601.51,-0.18739
1601.52,-0.1872
1601.53,-0.1877
1601.54,-0.18743
1601.55,-0.18748
1601.56,-0.1869
1601.57,-0.18761
1601.58,-0.18711
1601.59,-0.18728
1601.6,-0.18709
1601.61,-0.18724
1601.62,-0.18699
1601.63,-0.18692
1601.64,-0.18733
1601.65,-0.18694
1601.66,-0.18713
1601.67,-0.18684
1601.68,-0.18735
1601.69,-0.18695
1601.7,-0.18716
1601.71,-0.18664
1601.72,-0.18686
1601.73,-0.1867
1601.74,-0.18671
1601.75,-0.18654
1601.76,-0.187
1601.77,-0.18667
1601.78,-0.18703
1601.79,-0.18646
1601.8,-0.18646
1601.81,-0.18692
1601.82,-0.18632
1601.83,-0.18702
1601.84,-0.18649
1601.85,-0.18707
1601.86,-0.18668
1601.87,-0.18672
1601.88,-0.18673
1601.89,-0.18637
1601.9,-0.18653
1601.91,-0.18666
1601.92,-0.18627
1601.93,-0.18643
1601.94,-0.18621
1601.95,-0.18656
1601.96,-0.18652
1601.97,-0.18662
1601.98,-0.18649
1601.99,-0.18594
1602,-0.18654
1602.01,-0.18675
1602.02,-0.18632
1602.03,-0.1863
1602.04,-0.18676
1602.05,-0.1863
1602.06,-0.18702
1602.07,-0.1864
1602.08,-0.18623
1602.09,-0.18682
1602.1,-0.18641
1602.11,-0.18662
1602.12,-0.18654
1602.13,-0.18638
1602.14,-0.18639
1602.15,-0.18641
1602.16,-0.18722
1602.17,-0.18656
1602.18,-0.1863
1602.19,-0.18722
1602.2,-0.18699
1602.21,-0.1866
1602.22,-0.18697
1602.23,-0.18711
1602.24,-0.18667
1602.25,-0.18779
1602.26,-0.18672
1602.27,-0.18627
1602.28,-0.18657
1602.29,-0.18736
1602.3,-0.18691
1602.31,-0.18756
1602.32,-0.18718
1602.33,-0.18707
1602.34,-0.18763
1602.35,-0.18738
1602.36,-0.18702
1602.37,-0.18779
1602.38,-0.18713
1602.39,-0.18745
1602.4,-0.18779
1602.41,-0.18739
1602.42,-0.18728
1602.43,-0.18764
1602.44,-0.18757
1602.45,-0.18778
1602.46,-0.18744
1602.47,-0.18847
1602.48,-0.18771
1602.49,-0.188
1602.5,-0.18722
1602.51,-0.18801
1602.52,-0.1883
1602.53,-0.18761
1602.54,-0.18842
1602.55,-0.18795
1602.56,-0.18819
1602.57,-0.18817
1602.58,-0.18825
1602.59,-0.18834
1602.6,-0.18831
1602.61,-0.18777
1602.62,-0.18805
1602.63,-0.18815
1602.64,-0.18807
1602.65,-0.18824
1602.66,-0.188
1602.67,-0.18847
1602.68,-0.18781
1602.69,-0.18827
1602.7,-0.18807
1602.71,-0.18835
1602.72,-0.18784
1602.73,-0.18877
1602.74,-0.18798
1602.75,-0.18832
1602.76,-0.18835
1602.77,-0.18802
1602.78,-0.18839
1602.79,-0.18816
1602.8,-0.18833
1602.81,-0.18799
1602.82,-0.18824
1602.83,-0.18796
1602.84,-0.18817
1602.85,-0.18812
1602.86,-0.18837
1602.87,-0.18811
1602.88,-0.18823
1602.89,-0.18827
1602.9,-0.18789
1602.91,-0.18801
1602.92,-0.18855
1602.93,-0.18818
1602.94,-0.18786
1602.95,-0.18809
1602.96,-0.18811
1602.97,-0.18831
1602.98,-0.18829
1602.99,-0.18846
1603,-0.18796
1603.01,-0.18794
1603.02,-0.18779
1603.03,-0.18831
1603.04,-0.18794
1603.05,-0.18797
1603.06,-0.18765
1603.07,-0.18808
1603.08,-0.18789
1603.09,-0.18776
1603.1,-0.18821
1603.11,-0.18771
1603.12,-0.18777
1603.13,-0.18767
1603.14,-0.18817
1603.15,-0.18807
1603.16,-0.18758
1603.17,-0.18781
1603.18,-0.18773
1603.19,-0.18788
1603.2,-0.18791
1603.21,-0.1881
1603.22,-0.1876
1603.23,-0.18773
1603.24,-0.18772
1603.25,-0.18781
1603.26,-0.18813
1603.27,-0.18735
1603.28,-0.18779
1603.29,-0.18772
1603.3,-0.18822
1603.31,-0.18798
1603.32,-0.18761
1603.33,-0.18805
1603.34,-0.18848
1603.35,-0.18806
1603.36,-0.18814
1603.37,-0.18799
1603.38,-0.18798
1603.39,-0.18821
1603.4,-0.18755
1603.41,-0.18841
1603.42,-0.18785
1603.43,-0.18794
1603.44,-0.18844
1603.45,-0.1888
1603.46,-0.18677
1603.47,-0.18908
1603.48,-0.18797
1603.49,-0.18862
1603.5,-0.18793
1603.51,-0.18823
1603.52,-0.18807
1603.53,-0.18835
1603.54,-0.1882
1603.55,-0.18824
1603.56,-0.18882
1603.57,-0.18824
1603.58,-0.1885
1603.59,-0.18852
1603.6,-0.18834
1603.61,-0.18819
1603.62,-0.18841
1603.63,-0.18807
1603.64,-0.18862
1603.65,-0.18887
1603.66,-0.18835
1603.67,-0.18871
1603.68,-0.18849
1603.69,-0.18847
1603.7,-0.1884
1603.71,-0.18859
1603.72,-0.1882
1603.73,-0.18833
1603.74,-0.18827
1603.75,-0.18852
1603.76,-0.18872
1603.77,-0.18824
1603.78,-0.18882
1603.79,-0.1886
1603.8,-0.1888
1603.81,-0.18847
1603.82,-0.18828
1603.83,-0.18846
1603.84,-0.18844
1603.85,-0.1881
1603.86,-0.18853
1603.87,-0.18809
1603.88,-0.18854
1603.89,-0.18857
1603.9,-0.1884
1603.91,-0.18912
1603.92,-0.18862
1603.93,-0.18835
1603.94,-0.18837
1603.95,-0.1886
1603.96,-0.18853
1603.97,-0.18833
1603.98,-0.18894
1603.99,-0.1888
1604,-0.18835
1604.01,-0.1887
1604.02,-0.18832
1604.03,-0.1887
1604.04,-0.18896
1604.05,-0.18856
1604.06,-0.18851
1604.07,-0.18837
1604.08,-0.18858
1604.09,-0.18803
1604.1,-0.18896
1604.11,-0.18858
1604.12,-0.18868
1604.13,-0.18886
1604.14,-0.18871
1604.15,-0.18857
1604.16,-0.1881
1604.17,-0.18825
1604.18,-0.18891
1604.19,-0.18867
1604.2,-0.18863
1604.21,-0.18855
1604.22,-0.18875
1604.23,-0.18806
1604.24,-0.18863
1604.25,-0.1888
1604.26,-0.18857
1604.27,-0.18838
1604.28,-0.18862
1604.29,-0.18872
1604.3,-0.18858
1604.31,-0.18879
1604.32,-0.18848
1604.33,-0.18917
1604.34,-0.18862
1604.35,-0.18869
1604.36,-0.18909
1604.37,-0.18891
1604.38,-0.18872
1604.39,-0.18881
1604.4,-0.18839
1604.41,-0.18906
1604.42,-0.18865
1604.43,-0.1889
1604.44,-0.18859
1604.45,-0.18841
1604.46,-0.18866
1604.47,-0.18889
1604.48,-0.18852
1604.49,-0.18887
1604.5,-0.1889
1604.51,-0.18828
1604.52,-0.18844
1604.53,-0.18871
1604.54,-0.18861
1604.55,-0.18878
1604.56,-0.18928
1604.57,-0.18828
1604.58,-0.18915
1604.59,-0.18845
1604.6,-0.18914
1604.61,-0.18833
1604.62,-0.18921
1604.63,-0.18773
1604.64,-0.18869
1604.65,-0.18813
1604.66,-0.18861
1604.67,-0.18875
1604.68,-0.18839
1604.69,-0.18878
1604.7,-0.18864
1604.71,-0.18898
1604.72,-0.18844
1604.73,-0.18873
1604.74,-0.18864
1604.75,-0.18855
1604.76,-0.18809
1604.77,-0.189
1604.78,-0.18824
1604.79,-0.1887
1604.8,-0.18827
1604.81,-0.18851
1604.82,-0.18846
1604.83,-0.18832
1604.84,-0.18835
1604.85,-0.18868
1604.86,-0.18817
1604.87,-0.18846
1604.88,-0.1886
1604.89,-0.18815
1604.9,-0.18818
1604.91,-0.18855
1604.92,-0.18866
1604.93,-0.18816
1604.94,-0.18841
1604.95,-0.18844
1604.96,-0.18873
1604.97,-0.18783
1604.98,-0.18858
1604.99,-0.18811
1605,-0.18873
1605.01,-0.18793
1605.02,-0.18841
1605.03,-0.18817
1605.04,-0.18841
1605.05,-0.18826
1605.06,-0.18805
1605.07,-0.18845
1605.08,-0.18768
1605.09,-0.18842
1605.1,-0.18787
1605.11,-0.1885
1605.12,-0.18823
1605.13,-0.18853
1605.14,-0.18787
1605.15,-0.18874
1605.16,-0.18786
1605.17,-0.18804
1605.18,-0.18797
1605.19,-0.18854
1605.2,-0.18775
1605.21,-0.18748
1605.22,-0.18978
1605.23,-0.18732
1605.24,-0.18797
1605.25,-0.18858
1605.26,-0.18833
1605.27,-0.18829
1605.28,-0.18813
1605.29,-0.18789
1605.3,-0.18883
1605.31,-0.18788
1605.32,-0.18847
1605.33,-0.18829
1605.34,-0.188
1605.35,-0.18796
1605.36,-0.18851
1605.37,-0.18825
1605.38,-0.18837
1605.39,-0.18802
1605.4,-0.18807
1605.41,-0.18837
1605.42,-0.18839
1605.43,-0.18849
1605.44,-0.18787
1605.45,-0.18837
1605.46,-0.18796
1605.47,-0.19004
1605.48,-0.18774
1605.49,-0.18852
1605.5,-0.1887
1605.51,-0.18822
1605.52,-0.18822
1605.53,-0.18901
1605.54,-0.18888
1605.55,-0.18844
1605.56,-0.18876
1605.57,-0.18854
1605.58,-0.18865
1605.59,-0.18864
1605.6,-0.18879
1605.61,-0.18903
1605.62,-0.18919
1605.63,-0.18884
1605.64,-0.18882
1605.65,-0.18871
1605.66,-0.18891
1605.67,-0.18862
1605.68,-0.18898
1605.69,-0.18889
1605.7,-0.18881
1605.71,-0.18879
1605.72,-0.18854
1605.73,-0.189
1605.74,-0.18916
1605.75,-0.18912
1605.76,-0.18855
1605.77,-0.18873
1605.78,-0.18925
1605.79,-0.18873
1605.8,-0.18885
1605.81,-0.18934
1605.82,-0.18894
1605.83,-0.18881
1605.84,-0.18913
1605.85,-0.18845
1605.86,-0.18876
1605.87,-0.1888
1605.88,-0.18934
1605.89,-0.18844
1605.9,-0.1886
1605.91,-0.18858
1605.92,-0.18905
1605.93,-0.1891
1605.94,-0.18906
1605.95,-0.18941
1605.96,-0.18919
1605.97,-0.18871
1605.98,-0.18878
1605.99,-0.18859
1606,-0.18971
1606.01,-0.18909
1606.02,-0.18932
1606.03,-0.18915
1606.04,-0.18895
1606.05,-0.18939
1606.06,-0.18898
1606.07,-0.1889
1606.08,-0.1887
1606.09,-0.18916
1606.1,-0.18912
1606.11,-0.18857
1606.12,-0.18892
1606.13,-0.18908
1606.14,-0.18877
1606.15,-0.18908
1606.16,-0.18886
1606.17,-0.18934
1606.18,-0.18865
1606.19,-0.18868
1606.2,-0.18946
1606.21,-0.18853
1606.22,-0.18888
1606.23,-0.18902
1606.24,-0.18918
1606.25,-0.18819
1606.26,-0.18943
1606.27,-0.18898
1606.28,-0.18899
1606.29,-0.18932
1606.3,-0.18865
1606.31,-0.18853
1606.32,-0.18912
1606.33,-0.18888
1606.34,-0.18875
1606.35,-0.18894
1606.36,-0.18882
1606.37,-0.18886
1606.38,-0.18903
1606.39,-0.18941
1606.4,-0.18831
1606.41,-0.18886
1606.42,-0.18837
1606.43,-0.18878
1606.44,-0.18862
1606.45,-0.18897
1606.46,-0.18845
1606.47,-0.18832
1606.48,-0.18897
1606.49,-0.18883
1606.5,-0.18869
1606.51,-0.18882
1606.52,-0.18861
1606.53,-0.18882
1606.54,-0.18887
1606.55,-0.18904
1606.56,-0.18894
1606.57,-0.18937
1606.58,-0.18913
1606.59,-0.18891
1606.6,-0.18896
1606.61,-0.18895
1606.62,-0.18904
1606.63,-0.18905
1606.64,-0.18932
1606.65,-0.18935
1606.66,-0.18933
1606.67,-0.18898
1606.68,-0.18901
1606.69,-0.1889
1606.7,-0.18932
1606.71,-0.18929
1606.72,-0.18884
1606.73,-0.18942
1606.74,-0.18887
1606.75,-0.1896
1606.76,-0.18946
1606.77,-0.18942
1606.78,-0.18917
1606.79,-0.18977
1606.8,-0.1892
1606.81,-0.18979
1606.82,-0.18982
1606.83,-0.18991
1606.84,-0.18926
1606.85,-0.18926
1606.86,-0.18991
1606.87,-0.18976
1606.88,-0.18971
1606.89,-0.1898
1606.9,-0.19004
1606.91,-0.1892
1606.92,-0.19028
1606.93,-0.18968
1606.94,-0.18979
1606.95,-0.18978
1606.96,-0.19007
1606.97,-0.18992
1606.98,-0.18944
1606.99,-0.19019
1607,-0.18999
1607.01,-0.18975
1607.02,-0.18995
1607.03,-0.18984
1607.04,-0.1901
1607.05,-0.19005
1607.06,-0.18944
1607.07,-0.19037
1607.08,-0.18975
1607.09,-0.18986
1607.1,-0.19034
1607.11,-0.19046
1607.12,-0.18954
1607.13,-0.19025
1607.14,-0.19014
1607.15,-0.18987
1607.16,-0.18993
1607.17,-0.18962
1607.18,-0.19031
1607.19,-0.18945
1607.2,-0.19029
1607.21,-0.18965
1607.22,-0.19009
1607.23,-0.19021
1607.24,-0.18999
1607.25,-0.18976
1607.26,-0.1899
1607.27,-0.19021
1607.28,-0.1901
1607.29,-0.18991
1607.3,-0.19009
1607.31,-0.18949
1607.32,-0.19013
1607.33,-0.1895
1607.34,-0.18969
1607.35,-0.19014
1607.36,-0.1899
1607.37,-0.18973
1607.38,-0.18982
1607.39,-0.18987
1607.4,-0.18954
1607.41,-0.18933
1607.42,-0.18957
1607.43,-0.18968
1607.44,-0.18985
1607.45,-0.18962
1607.46,-0.19001
1607.47,-0.19019
1607.48,-0.18942
1607.49,-0.18986
1607.5,-0.18917
1607.51,-0.18986
1607.52,-0.18953
1607.53,-0.1898
1607.54,-0.18947
1607.55,-0.18935
1607.56,-0.18958
1607.57,-0.18942
1607.58,-0.18944
1607.59,-0.18954
1607.6,-0.18943
1607.61,-0.18972
1607.62,-0.18948
1607.63,-0.18887
1607.64,-0.18974
1607.65,-0.18903
1607.66,-0.18941
1607.67,-0.1896
1607.68,-0.18928
1607.69,-0.18941
1607.7,-0.18937
1607.71,-0.18999
1607.72,-0.18962
1607.73,-0.18915
1607.74,-0.18919
1607.75,-0.18941
1607.76,-0.18989
1607.77,-0.18919
1607.78,-0.18931
1607.79,-0.18957
1607.8,-0.18891
1607.81,-0.18947
1607.82,-0.18982
1607.83,-0.18991
1607.84,-0.18937
1607.85,-0.1892
1607.86,-0.18964
1607.87,-0.18925
1607.88,-0.18941
1607.89,-0.19001
1607.9,-0.18975
1607.91,-0.18953
1607.92,-0.1892
1607.93,-0.18992
1607.94,-0.18945
1607.95,-0.18957
1607.96,-0.18973
1607.97,-0.18944
1607.98,-0.18955
1607.99,-0.18906
1608,-0.18968
1608.01,-0.18922
1608.02,-0.18982
1608.03,-0.18979
1608.04,-0.19038
1608.05,-0.1897
1608.06,-0.19
1608.07,-0.19004
1608.08,-0.19005
1608.09,-0.18982
1608.1,-0.19014
1608.11,-0.19003
1608.12,-0.1899
1608.13,-0.18998
1608.14,-0.18952
1608.15,-0.18967
1608.16,-0.1904
1608.17,-0.19032
1608.18,-0.19007
1608.19,-0.19017
1608.2,-0.19034
1608.21,-0.19016
1608.22,-0.19005
1608.23,-0.19028
1608.24,-0.19002
1608.25,-0.19041
1608.26,-0.19016
1608.27,-0.19003
1608.28,-0.18999
1608.29,-0.19049
1608.3,-0.18988
1608.31,-0.19059
1608.32,-0.19035
1608.33,-0.1902
1608.34,-0.19004
1608.35,-0.19071
1608.36,-0.19038
1608.37,-0.19036
1608.38,-0.19063
1608.39,-0.19003
1608.4,-0.19052
1608.41,-0.19059
1608.42,-0.19015
1608.43,-0.19002
1608.44,-0.1899
1608.45,-0.19055
1608.46,-0.19027
1608.47,-0.18999
1608.48,-0.19064
1608.49,-0.18978
1608.5,-0.19005
1608.51,-0.1903
1608.52,-0.18987
1608.53,-0.19
1608.54,-0.1902
1608.55,-0.19016
1608.56,-0.18949
1608.57,-0.1904
1608.58,-0.19001
1608.59,-0.19023
1608.6,-0.19005
1608.61,-0.18987
1608.62,-0.19022
1608.63,-0.18962
1608.64,-0.18986
1608.65,-0.19001
1608.66,-0.18934
1608.67,-0.18994
1608.68,-0.18973
1608.69,-0.18986
1608.7,-0.18911
1608.71,-0.19022
1608.72,-0.19033
1608.73,-0.18868
1608.74,-0.1899
1608.75,-0.18934
1608.76,-0.18961
1608.77,-0.18948
1608.78,-0.18986
1608.79,-0.18993
1608.8,-0.18959
1608.81,-0.18942
1608.82,-0.1899
1608.83,-0.18935
1608.84,-0.18909
1608.85,-0.18938
1608.86,-0.18916
1608.87,-0.1895
1608.88,-0.18982
1608.89,-0.18972
1608.9,-0.18977
1608.91,-0.18909
1608.92,-0.18924
1608.93,-0.18945
1608.94,-0.18917
1608.95,-0.18967
1608.96,-0.18948
1608.97,-0.18991
1608.98,-0.18971
1608.99,-0.18983
1609,-0.18929
1609.01,-0.1896
1609.02,-0.18982
1609.03,-0.18924
1609.04,-0.1901
1609.05,-0.18939
1609.06,-0.18972
1609.07,-0.18936
1609.08,-0.18982
1609.09,-0.18961
1609.1,-0.1903
1609.11,-0.18965
1609.12,-0.18959
1609.13,-0.18956
1609.14,-0.18949
1609.15,-0.18959
1609.16,-0.19014
1609.17,-0.18928
1609.18,-0.18987
1609.19,-0.18984
1609.2,-0.18948
1609.21,-0.18974
1609.22,-0.18943
1609.23,-0.19025
1609.24,-0.18946
1609.25,-0.19015
1609.26,-0.18985
1609.27,-0.18965
1609.28,-0.1898
1609.29,-0.18964
1609.3,-0.19003
1609.31,-0.18973
1609.32,-0.18997
1609.33,-0.19008
1609.34,-0.19031
1609.35,-0.18954
1609.36,-0.19015
1609.37,-0.1897
1609.38,-0.18985
1609.39,-0.18954
1609.4,-0.19024
1609.41,-0.19015
1609.42,-0.19007
1609.43,-0.18981
1609.44,-0.18971
1609.45,-0.19008
1609.46,-0.19014
1609.47,-0.1901
1609.48,-0.18987
1609.49,-0.18993
1609.5,-0.18987
1609.51,-0.18968
1609.52,-0.19013
1609.53,-0.19011
1609.54,-0.19063
1609.55,-0.18981
1609.56,-0.18966
1609.57,-0.19005
1609.58,-0.18972
1609.59,-0.19053
1609.6,-0.19008
1609.61,-0.18978
1609.62,-0.19037
1609.63,-0.18996
1609.64,-0.1904
1609.65,-0.19026
1609.66,-0.18976
1609.67,-0.18961
1609.68,-0.19017
1609.69,-0.18995
1609.7,-0.19014
1609.71,-0.1899
1609.72,-0.19042
1609.73,-0.18997
1609.74,-0.19031
1609.75,-0.19013
1609.76,-0.19019
1609.77,-0.19043
1609.78,-0.18979
1609.79,-0.19016
1609.8,-0.18981
1609.81,-0.19055
1609.82,-0.18969
1609.83,-0.19027
1609.84,-0.18978
1609.85,-0.19038
1609.86,-0.19023
1609.87,-0.19008
1609.88,-0.18997
1609.89,-0.1903
1609.9,-0.1903
1609.91,-0.18988
1609.92,-0.19002
1609.93,-0.19007
1609.94,-0.19072
1609.95,-0.19025
1609.96,-0.18946
1609.97,-0.1916
1609.98,-0.19013
1609.99,-0.18968
1610,-0.18968
1610.01,-0.19038
1610.02,-0.19016
1610.03,-0.19
1610.04,-0.19026
1610.05,-0.19016
1610.06,-0.19037
1610.07,-0.19013
1610.08,-0.18984
1610.09,-0.19035
1610.1,-0.19022
1610.11,-0.19039
1610.12,-0.19004
1610.13,-0.19035
1610.14,-0.19018
1610.15,-0.19019
1610.16,-0.19076
1610.17,-0.19019
1610.18,-0.1903
1610.19,-0.19045
1610.2,-0.19062
1610.21,-0.19028
1610.22,-0.19037
1610.23,-0.19022
1610.24,-0.19112
1610.25,-0.19049
1610.26,-0.19018
1610.27,-0.18985
1610.28,-0.19086
1610.29,-0.19053
1610.3,-0.19015
1610.31,-0.1905
1610.32,-0.1905
1610.33,-0.19055
1610.34,-0.19095
1610.35,-0.19069
1610.36,-0.19039
1610.37,-0.19051
1610.38,-0.19083
1610.39,-0.19027
1610.4,-0.19037
1610.41,-0.19036
1610.42,-0.1907
1610.43,-0.19047
1610.44,-0.19052
1610.45,-0.19042
1610.46,-0.19052
1610.47,-0.19056
1610.48,-0.1902
1610.49,-0.19106
1610.5,-0.19108
1610.51,-0.19095
1610.52,-0.19039
1610.53,-0.19012
1610.54,-0.18983
1610.55,-0.19067
1610.56,-0.1907
1610.57,-0.19064
1610.58,-0.19074
1610.59,-0.19065
1610.6,-0.19073
1610.61,-0.19035
1610.62,-0.1907
1610.63,-0.19059
1610.64,-0.19075
1610.65,-0.19066
1610.66,-0.19089
1610.67,-0.19043
1610.68,-0.19081
1610.69,-0.19014
1610.7,-0.19028
1610.71,-0.19066
1610.72,-0.19071
1610.73,-0.19036
1610.74,-0.19066
1610.75,-0.19016
1610.76,-0.19067
1610.77,-0.19029
1610.78,-0.19049
1610.79,-0.19029
1610.8,-0.19106
1610.81,-0.19055
1610.82,-0.19022
1610.83,-0.19067
1610.84,-0.19053
1610.85,-0.19057
1610.86,-0.19032
1610.87,-0.19017
1610.88,-0.19049
1610.89,-0.19053
1610.9,-0.19058
1610.91,-0.19054
1610.92,-0.19104
1610.93,-0.1903
1610.94,-0.19073
1610.95,-0.19073
1610.96,-0.19063
1610.97,-0.19023
1610.98,-0.19036
1610.99,-0.19053
1611,-0.1903
1611.01,-0.19073
1611.02,-0.19035
1611.03,-0.19096
1611.04,-0.19038
1611.05,-0.19098
1611.06,-0.19045
1611.07,-0.19112
1611.08,-0.19044
1611.09,-0.19099
1611.1,-0.19097
1611.11,-0.1903
1611.12,-0.19075
1611.13,-0.19083
1611.14,-0.19065
1611.15,-0.19052
1611.16,-0.19106
1611.17,-0.19121
1611.18,-0.19101
1611.19,-0.19108
1611.2,-0.19088
1611.21,-0.19168
1611.22,-0.19116
1611.23,-0.19109
1611.24,-0.1912
1611.25,-0.19118
1611.26,-0.19096
1611.27,-0.19106
1611.28,-0.19124
1611.29,-0.19089
1611.3,-0.19121
1611.31,-0.19107
1611.32,-0.19064
1611.33,-0.19182
1611.34,-0.19101
1611.35,-0.19135
1611.36,-0.19166
1611.37,-0.19151
1611.38,-0.19127
1611.39,-0.19133
1611.4,-0.19123
1611.41,-0.19116
1611.42,-0.19188
1611.43,-0.1909
1611.44,-0.19165
1611.45,-0.19121
1611.46,-0.19181
1611.47,-0.19124
1611.48,-0.1914
1611.49,-0.19151
1611.5,-0.19152
1611.51,-0.19113
1611.52,-0.19137
1611.53,-0.19131
1611.54,-0.19172
1611.55,-0.19145
1611.56,-0.1915
1611.57,-0.1917
1611.58,-0.19152
1611.59,-0.19148
1611.6,-0.19144
1611.61,-0.192
1611.62,-0.19129
1611.63,-0.19178
1611.64,-0.19123
1611.65,-0.19148
1611.66,-0.1916
1611.67,-0.19139
1611.68,-0.19162
1611.69,-0.19145
1611.7,-0.19151
1611.71,-0.19139
1611.72,-0.19137
1611.73,-0.19075
1611.74,-0.19177
1611.75,-0.19106
1611.76,-0.1917
1611.77,-0.19143
1611.78,-0.19203
1611.79,-0.19089
1611.8,-0.19186
1611.81,-0.19076
1611.82,-0.19132
1611.83,-0.19113
1611.84,-0.19094
1611.85,-0.19127
1611.86,-0.19123
1611.87,-0.19127
1611.88,-0.19087
1611.89,-0.19135
1611.9,-0.19075
1611.91,-0.19143
1611.92,-0.19111
1611.93,-0.19096
1611.94,-0.19129
1611.95,-0.19081
1611.96,-0.19086
1611.97,-0.19083
1611.98,-0.19087
1611.99,-0.19083
1612,-0.19094
1612.01,-0.19099
1612.02,-0.19087
1612.03,-0.19043
1612.04,-0.19082
1612.05,-0.19096
1612.06,-0.19058
1612.07,-0.19073
1612.08,-0.19045
1612.09,-0.19065
1612.1,-0.19115
1612.11,-0.19095
1612.12,-0.19018
1612.13,-0.19089
1612.14,-0.19092
1612.15,-0.19063
1612.16,-0.1901
1612.17,-0.19079
1612.18,-0.18989
1612.19,-0.19088
1612.2,-0.1902
1612.21,-0.1907
1612.22,-0.1907
1612.23,-0.19127
1612.24,-0.19016
1612.25,-0.19062
1612.26,-0.19105
1612.27,-0.19016
1612.28,-0.19074
1612.29,-0.19062
1612.3,-0.19036
1612.31,-0.19111
1612.32,-0.19086
1612.33,-0.1907
1612.34,-0.19111
1612.35,-0.19082
1612.36,-0.19086
1612.37,-0.19087
1612.38,-0.19102
1612.39,-0.19099
1612.4,-0.19079
1612.41,-0.19104
1612.42,-0.19114
1612.43,-0.19046
1612.44,-0.19139
1612.45,-0.19069
1612.46,-0.19085
1612.47,-0.19114
1612.48,-0.19089
1612.49,-0.19087
1612.5,-0.19128
1612.51,-0.1908
1612.52,-0.19131
1612.53,-0.19107
1612.54,-0.19113
1612.55,-0.19113
1612.56,-0.19191
1612.57,-0.19113
1612.58,-0.1912
1612.59,-0.19109
1612.6,-0.19146
1612.61,-0.19117
1612.62,-0.19112
1612.63,-0.19128
1612.64,-0.19161
1612.65,-0.19087
1612.66,-0.19191
1612.67,-0.19134
1612.68,-0.19185
1612.69,-0.1918
1612.7,-0.19131
1612.71,-0.19193
1612.72,-0.19175
1612.73,-0.19172
1612.74,-0.19145
1612.75,-0.19182
1612.76,-0.19194
1612.77,-0.19164
1612.78,-0.1919
1612.79,-0.19156
1612.8,-0.19187
1612.81,-0.19151
1612.82,-0.19166
1612.83,-0.19164
1612.84,-0.19204
1612.85,-0.19161
1612.86,-0.19243
1612.87,-0.19123
1612.88,-0.19203
1612.89,-0.19128
1612.9,-0.19168
1612.91,-0.19149
1612.92,-0.1919
1612.93,-0.1919
1612.94,-0.19192
1612.95,-0.19136
1612.96,-0.19162
1612.97,-0.19145
1612.98,-0.19165
1612.99,-0.19156
1613,-0.19158
1613.01,-0.19185
1613.02,-0.19216
1613.03,-0.19145
1613.04,-0.19161
1613.05,-0.19155
1613.06,-0.1915
1613.07,-0.19133
1613.08,-0.19121
1613.09,-0.1912
1613.1,-0.19146
1613.11,-0.19135
1613.12,-0.19147
1613.13,-0.19147
1613.14,-0.19141
1613.15,-0.19078
1613.16,-0.19126
1613.17,-0.19121
1613.18,-0.19108
1613.19,-0.19135
1613.2,-0.19126
1613.21,-0.19092
1613.22,-0.1921
1613.23,-0.19111
1613.24,-0.1913
1613.25,-0.19117
1613.26,-0.19107
1613.27,-0.19151
1613.28,-0.19098
1613.29,-0.19146
1613.3,-0.19092
1613.31,-0.1915
1613.32,-0.19084
1613.33,-0.19119
1613.34,-0.19135
1613.35,-0.19133
1613.36,-0.19151
1613.37,-0.1912
1613.38,-0.19119
1613.39,-0.19134
1613.4,-0.19122
1613.41,-0.19106
1613.42,-0.19136
1613.43,-0.1918
1613.44,-0.19087
1613.45,-0.19211
1613.46,-0.19193
1613.47,-0.19188
1613.48,-0.19169
1613.49,-0.19127
1613.5,-0.19159
1613.51,-0.19117
1613.52,-0.19119
1613.53,-0.19128
1613.54,-0.19172
1613.55,-0.19149
1613.56,-0.19158
1613.57,-0.19143
1613.58,-0.19197
1613.59,-0.19158
1613.6,-0.1915
1613.61,-0.19162
1613.62,-0.19151
1613.63,-0.1917
1613.64,-0.19144
1613.65,-0.19171
1613.66,-0.19131
1613.67,-0.19201
1613.68,-0.19183
1613.69,-0.19117
1613.7,-0.1922
1613.71,-0.19146
1613.72,-0.1915
1613.73,-0.19187
1613.74,-0.19182
1613.75,-0.19178
1613.76,-0.19169
1613.77,-0.19186
1613.78,-0.19202
1613.79,-0.19205
1613.8,-0.19225
1613.81,-0.19192
1613.82,-0.19213
1613.83,-0.19201
1613.84,-0.19207
1613.85,-0.19201
1613.86,-0.19223
1613.87,-0.19186
1613.88,-0.19184
1613.89,-0.19208
1613.9,-0.19216
1613.91,-0.19271
1613.92,-0.19171
1613.93,-0.19257
1613.94,-0.19211
1613.95,-0.19216
1613.96,-0.19198
1613.97,-0.19263
1613.98,-0.19193
1613.99,-0.19177
1614,-0.19243
1614.01,-0.19236
1614.02,-0.1922
1614.03,-0.19252
1614.04,-0.19223
1614.05,-0.19204
1614.06,-0.19236
1614.07,-0.19232
1614.08,-0.1922
1614.09,-0.19254
1614.1,-0.192
1614.11,-0.19224
1614.12,-0.19248
1614.13,-0.19255
1614.14,-0.19206
1614.15,-0.19279
1614.16,-0.19233
1614.17,-0.19241
1614.18,-0.1921
1614.19,-0.19282
1614.2,-0.19217
1614.21,-0.19281
1614.22,-0.19207
1614.23,-0.1925
1614.24,-0.19271
1614.25,-0.19252
1614.26,-0.19195
1614.27,-0.19233
1614.28,-0.19218
1614.29,-0.19231
1614.3,-0.19204
1614.31,-0.19235
1614.32,-0.19283
1614.33,-0.19217
1614.34,-0.19248
1614.35,-0.19264
1614.36,-0.19235
1614.37,-0.19231
1614.38,-0.19223
1614.39,-0.19226
1614.4,-0.19231
1614.41,-0.1924
1614.42,-0.19246
1614.43,-0.19254
1614.44,-0.19263
1614.45,-0.19291
1614.46,-0.19278
1614.47,-0.19291
1614.48,-0.19287
1614.49,-0.19279
1614.5,-0.19235
1614.51,-0.19256
1614.52,-0.19264
1614.53,-0.19198
1614.54,-0.1924
1614.55,-0.19219
1614.56,-0.19269
1614.57,-0.19249
1614.58,-0.19289
1614.59,-0.19298
1614.6,-0.1926
1614.61,-0.19249
1614.62,-0.19207
1614.63,-0.19237
1614.64,-0.19246
1614.65,-0.19272
1614.66,-0.19249
1614.67,-0.19252
1614.68,-0.19259
1614.69,-0.19229
1614.7,-0.19277
1614.71,-0.19228
1614.72,-0.19233
1614.73,-0.19236
1614.74,-0.19232
1614.75,-0.19247
1614.76,-0.1924
1614.77,-0.19295
1614.78,-0.19255
1614.79,-0.19277
1614.8,-0.19284
1614.81,-0.19226
1614.82,-0.19279
1614.83,-0.19252
1614.84,-0.19302
1614.85,-0.19248
1614.86,-0.19273
1614.87,-0.19253
1614.88,-0.19285
1614.89,-0.19276
1614.9,-0.19283
1614.91,-0.19285
1614.92,-0.19297
1614.93,-0.19277
1614.94,-0.19232
1614.95,-0.19234
1614.96,-0.19269
1614.97,-0.19252
1614.98,-0.19289
1614.99,-0.19251
1615,-0.19345
1615.01,-0.19306
1615.02,-0.19342
1615.03,-0.19292
1615.04,-0.193
1615.05,-0.19313
1615.06,-0.19248
1615.07,-0.19286
1615.08,-0.19283
1615.09,-0.19267
1615.1,-0.19314
1615.11,-0.1925
1615.12,-0.19333
1615.13,-0.19293
1615.14,-0.1929
1615.15,-0.19312
1615.16,-0.19324
1615.17,-0.19263
1615.18,-0.19263
1615.19,-0.19314
1615.2,-0.19315
1615.21,-0.19261
1615.22,-0.19319
1615.23,-0.19333
1615.24,-0.19299
1615.25,-0.19299
1615.26,-0.19289
1615.27,-0.19304
1615.28,-0.19246
1615.29,-0.19276
1615.3,-0.19272
1615.31,-0.19291
1615.32,-0.1927
1615.33,-0.19311
1615.34,-0.19257
1615.35,-0.19336
1615.36,-0.19242
1615.37,-0.19322
1615.38,-0.19202
1615.39,-0.19311
1615.4,-0.19246
1615.41,-0.1927
1615.42,-0.1928
1615.43,-0.19276
1615.44,-0.19304
1615.45,-0.19299
1615.46,-0.19295
1615.47,-0.19313
1615.48,-0.1929
1615.49,-0.19275
1615.5,-0.19261
1615.51,-0.19227
1615.52,-0.19273
1615.53,-0.19266
1615.54,-0.1931
1615.55,-0.19297
1615.56,-0.19268
1615.57,-0.19293
1615.58,-0.19273
1615.59,-0.19319
1615.6,-0.19303
1615.61,-0.19281
1615.62,-0.19283
1615.63,-0.1929
1615.64,-0.19253
1615.65,-0.1929
1615.66,-0.19287
1615.67,-0.19244
1615.68,-0.19275
1615.69,-0.19279
1615.7,-0.19287
1615.71,-0.19244
1615.72,-0.19415
1615.73,-0.1923
1615.74,-0.19287
1615.75,-0.19245
1615.76,-0.19299
1615.77,-0.1927
1615.78,-0.19252
1615.79,-0.19301
1615.8,-0.19258
1615.81,-0.19297
1615.82,-0.19321
1615.83,-0.19331
1615.84,-0.19273
1615.85,-0.19267
1615.86,-0.19308
1615.87,-0.19294
1615.88,-0.19291
1615.89,-0.19306
1615.9,-0.19281
1615.91,-0.19345
1615.92,-0.19334
1615.93,-0.19272
1615.94,-0.19316
1615.95,-0.19284
1615.96,-0.19338
1615.97,-0.19288
1615.98,-0.19333
1615.99,-0.19294
1616,-0.19294
1616.01,-0.19292
1616.02,-0.19348
1616.03,-0.19309
1616.04,-0.1928
1616.05,-0.19316
1616.06,-0.19297
1616.07,-0.19319
1616.08,-0.19296
1616.09,-0.1927
1616.1,-0.1936
1616.11,-0.19297
1616.12,-0.19326
1616.13,-0.19325
1616.14,-0.19327
1616.15,-0.19291
1616.16,-0.19332
1616.17,-0.19268
1616.18,-0.19295
1616.19,-0.19357
1616.2,-0.19305
1616.21,-0.1932
1616.22,-0.19318
1616.23,-0.19249
1616.24,-0.19337
1616.25,-0.193
1616.26,-0.19319
1616.27,-0.19298
1616.28,-0.19316
1616.29,-0.19327
1616.3,-0.19286
1616.31,-0.19287
1616.32,-0.19309
1616.33,-0.19278
1616.34,-0.19274
1616.35,-0.19257
1616.36,-0.1933
1616.37,-0.19289
1616.38,-0.19316
1616.39,-0.19263
1616.4,-0.19298
1616.41,-0.1927
1616.42,-0.19274
1616.43,-0.19266
1616.44,-0.19275
1616.45,-0.19273
1616.46,-0.19263
1616.47,-0.19324
1616.48,-0.19246
1616.49,-0.19267
1616.5,-0.19293
1616.51,-0.1928
1616.52,-0.19238
1616.53,-0.19249
1616.54,-0.19273
1616.55,-0.19238
1616.56,-0.19288
1616.57,-0.19274
1616.58,-0.19274
1616.59,-0.19251
1616.6,-0.19289
1616.61,-0.19246
1616.62,-0.19292
1616.63,-0.19223
1616.64,-0.19285
1616.65,-0.19231
1616.66,-0.19273
1616.67,-0.19244
1616.68,-0.19273
1616.69,-0.19268
1616.7,-0.19279
1616.71,-0.19298
1616.72,-0.19264
1616.73,-0.19253
1616.74,-0.19266
1616.75,-0.19282
1616.76,-0.19344
1616.77,-0.19265
1616.78,-0.19244
1616.79,-0.19264
1616.8,-0.19339
1616.81,-0.19324
1616.82,-0.19336
1616.83,-0.19295
1616.84,-0.19274
1616.85,-0.19344
1616.86,-0.19303
1616.87,-0.19287
1616.88,-0.19293
1616.89,-0.19313
1616.9,-0.19296
1616.91,-0.19293
1616.92,-0.1933
1616.93,-0.19291
1616.94,-0.19328
1616.95,-0.1927
1616.96,-0.19327
1616.97,-0.19372
1616.98,-0.1928
1616.99,-0.19305
1617,-0.1935
1617.01,-0.19312
1617.02,-0.19352
1617.03,-0.19362
1617.04,-0.19335
1617.05,-0.19376
1617.06,-0.19337
1617.07,-0.19303
1617.08,-0.19339
1617.09,-0.19355
1617.1,-0.19377
1617.11,-0.19332
1617.12,-0.19391
1617.13,-0.1937
1617.14,-0.19347
1617.15,-0.19386
1617.16,-0.1936
1617.17,-0.19385
1617.18,-0.19354
1617.19,-0.19368
1617.2,-0.19411
1617.21,-0.19339
1617.22,-0.19493
1617.23,-0.19383
1617.24,-0.19469
1617.25,-0.1936
1617.26,-0.1937
1617.27,-0.19384
1617.28,-0.19434
1617.29,-0.19422
1617.3,-0.19384
1617.31,-0.19374
1617.32,-0.19408
1617.33,-0.19459
1617.34,-0.1942
1617.35,-0.19398
1617.36,-0.19437
1617.37,-0.19429
1617.38,-0.19425
1617.39,-0.19418
1617.4,-0.19379
1617.41,-0.19398
1617.42,-0.19378
1617.43,-0.19426
1617.44,-0.19394
1617.45,-0.19367
1617.46,-0.19442
1617.47,-0.19258
1617.48,-0.19428
1617.49,-0.19429
1617.5,-0.19412
1617.51,-0.19375
1617.52,-0.19433
1617.53,-0.1939
1617.54,-0.19407
1617.55,-0.19402
1617.56,-0.19355
1617.57,-0.19437
1617.58,-0.19362
1617.59,-0.19404
1617.6,-0.19428
1617.61,-0.19385
1617.62,-0.19404
1617.63,-0.19382
1617.64,-0.19378
1617.65,-0.19358
1617.66,-0.19341
1617.67,-0.19384
1617.68,-0.19388
1617.69,-0.19359
1617.7,-0.19398
1617.71,-0.19377
1617.72,-0.19452
1617.73,-0.19381
1617.74,-0.1931
1617.75,-0.19364
1617.76,-0.19331
1617.77,-0.19366
1617.78,-0.19376
1617.79,-0.19315
1617.8,-0.19387
1617.81,-0.19348
1617.82,-0.19359
1617.83,-0.19404
1617.84,-0.19362
1617.85,-0.19355
1617.86,-0.19349
1617.87,-0.19341
1617.88,-0.19387
1617.89,-0.19363
1617.9,-0.1937
1617.91,-0.19383
1617.92,-0.1941
1617.93,-0.19308
1617.94,-0.19363
1617.95,-0.19356
1617.96,-0.19364
1617.97,-0.19369
1617.98,-0.19357
1617.99,-0.19383
1618,-0.19392
1618.01,-0.19382
1618.02,-0.19396
1618.03,-0.19403
1618.04,-0.19396
1618.05,-0.19364
1618.06,-0.19397
1618.07,-0.19397
1618.08,-0.19364
1618.09,-0.19418
1618.1,-0.19383
1618.11,-0.19417
1618.12,-0.1939
1618.13,-0.19447
1618.14,-0.19442
1618.15,-0.19406
1618.16,-0.1945
1618.17,-0.19385
1618.18,-0.19458
1618.19,-0.19394
1618.2,-0.19421
1618.21,-0.19472
1618.22,-0.19384
1618.23,-0.1945
1618.24,-0.19429
1618.25,-0.19508
1618.26,-0.19431
1618.27,-0.19439
1618.28,-0.19473
1618.29,-0.19434
1618.3,-0.19438
1618.31,-0.19493
1618.32,-0.19462
1618.33,-0.1949
1618.34,-0.19444
1618.35,-0.19465
1618.36,-0.19504
1618.37,-0.19484
1618.38,-0.19508
1618.39,-0.1949
1618.4,-0.19493
1618.41,-0.19492
1618.42,-0.19465
1618.43,-0.1946
1618.44,-0.19485
1618.45,-0.19492
1618.46,-0.19446
1618.47,-0.19533
1618.48,-0.195
1618.49,-0.19522
1618.5,-0.19506
1618.51,-0.19528
1618.52,-0.19491
1618.53,-0.19495
1618.54,-0.19505
1618.55,-0.19546
1618.56,-0.19527
1618.57,-0.19549
1618.58,-0.19511
1618.59,-0.1959
1618.6,-0.1956
1618.61,-0.1952
1618.62,-0.19517
1618.63,-0.19535
1618.64,-0.19514
1618.65,-0.19548
1618.66,-0.19511
1618.67,-0.19536
1618.68,-0.19553
1618.69,-0.19549
1618.7,-0.1956
1618.71,-0.19492
1618.72,-0.19553
1618.73,-0.19556
1618.74,-0.19498
1618.75,-0.195
1618.76,-0.19521
1618.77,-0.19491
1618.78,-0.19538
1618.79,-0.19511
1618.8,-0.19513
1618.81,-0.19536
1618.82,-0.19492
1618.83,-0.19534
1618.84,-0.19468
1618.85,-0.19517
1618.86,-0.19408
1618.87,-0.19478
1618.88,-0.19486
1618.89,-0.19444
1618.9,-0.19478
1618.91,-0.19509
1618.92,-0.19436
1618.93,-0.19464
1618.94,-0.19471
1618.95,-0.1948
1618.96,-0.19487
1618.97,-0.19462
1618.98,-0.19454
1618.99,-0.19436
1619,-0.19467
1619.01,-0.19443
1619.02,-0.19473
1619.03,-0.19457
1619.04,-0.19477
1619.05,-0.19441
1619.06,-0.19424
1619.07,-0.19416
1619.08,-0.1947
1619.09,-0.19428
1619.1,-0.19442
1619.11,-0.19458
1619.12,-0.19407
1619.13,-0.19441
1619.14,-0.1946
1619.15,-0.19449
1619.16,-0.19431
1619.17,-0.19407
1619.18,-0.19455
1619.19,-0.19429
1619.2,-0.19441
1619.21,-0.19412
1619.22,-0.19425
1619.23,-0.19482
1619.24,-0.19446
1619.25,-0.19435
1619.26,-0.19445
1619.27,-0.19449
1619.28,-0.19473
1619.29,-0.1944
1619.3,-0.19406
1619.31,-0.19452
1619.32,-0.19466
1619.33,-0.19499
1619.34,-0.19433
1619.35,-0.19438
1619.36,-0.1946
1619.37,-0.19459
1619.38,-0.19411
1619.39,-0.19493
1619.4,-0.19402
1619.41,-0.1944
1619.42,-0.19489
1619.43,-0.1943
1619.44,-0.19417
1619.45,-0.19444
1619.46,-0.19456
1619.47,-0.19442
1619.48,-0.19529
1619.49,-0.19456
1619.5,-0.19488
1619.51,-0.19498
1619.52,-0.19445
1619.53,-0.19461
1619.54,-0.19487
1619.55,-0.19466
1619.56,-0.1948
1619.57,-0.19495
1619.58,-0.19445
1619.59,-0.1953
1619.6,-0.19484
1619.61,-0.19525
1619.62,-0.19509
1619.63,-0.19466
1619.64,-0.19492
1619.65,-0.19502
1619.66,-0.19468
1619.67,-0.19514
1619.68,-0.19544
1619.69,-0.19479
1619.7,-0.19545
1619.71,-0.19554
1619.72,-0.19551
1619.73,-0.19528
1619.74,-0.19524
1619.75,-0.19525
1619.76,-0.19486
1619.77,-0.19515
1619.78,-0.19531
1619.79,-0.19501
1619.8,-0.19527
1619.81,-0.19545
1619.82,-0.19551
1619.83,-0.19558
1619.84,-0.19533
1619.85,-0.19504
1619.86,-0.1951
1619.87,-0.19536
1619.88,-0.19522
1619.89,-0.19537
1619.9,-0.19519
1619.91,-0.19516
1619.92,-0.19559
1619.93,-0.19534
1619.94,-0.19572
1619.95,-0.19544
1619.96,-0.19531
1619.97,-0.19546
1619.98,-0.1948
1619.99,-0.19555
1620,-0.19507
1620.01,-0.19554
1620.02,-0.19543
1620.03,-0.19538
1620.04,-0.19526
1620.05,-0.1956
1620.06,-0.19577
1620.07,-0.19473
1620.08,-0.1954
1620.09,-0.1944
1620.1,-0.19546
1620.11,-0.19522
1620.12,-0.19531
1620.13,-0.19498
1620.14,-0.19489
1620.15,-0.19468
1620.16,-0.19572
1620.17,-0.19523
1620.18,-0.19517
1620.19,-0.19498
1620.2,-0.19493
1620.21,-0.19466
1620.22,-0.19512
1620.23,-0.19461
1620.24,-0.19518
1620.25,-0.19517
1620.26,-0.19472
1620.27,-0.19498
1620.28,-0.19497
1620.29,-0.19513
1620.3,-0.19523
1620.31,-0.19522
1620.32,-0.19542
1620.33,-0.19522
1620.34,-0.19509
1620.35,-0.19502
1620.36,-0.19481
1620.37,-0.19488
1620.38,-0.19482
1620.39,-0.19454
1620.4,-0.19473
1620.41,-0.19546
1620.42,-0.19481
1620.43,-0.19486
1620.44,-0.19523
1620.45,-0.19517
1620.46,-0.19538
1620.47,-0.19517
1620.48,-0.19539
1620.49,-0.19536
1620.5,-0.19537
1620.51,-0.1956
1620.52,-0.19517
1620.53,-0.19543
1620.54,-0.19497
1620.55,-0.19534
1620.56,-0.1951
1620.57,-0.19508
1620.58,-0.19535
1620.59,-0.19518
1620.6,-0.19554
1620.61,-0.19581
1620.62,-0.19567
1620.63,-0.19513
1620.64,-0.19503
1620.65,-0.19557
1620.66,-0.195
1620.67,-0.19517
1620.68,-0.19516
1620.69,-0.19529
1620.7,-0.19519
1620.71,-0.19485
1620.72,-0.19566
1620.73,-0.19534
1620.74,-0.19583
1620.75,-0.19511
1620.76,-0.19467
1620.77,-0.19522
1620.78,-0.19563
1620.79,-0.19508
1620.8,-0.1955
1620.81,-0.19519
1620.82,-0.19462
1620.83,-0.19555
1620.84,-0.19547
1620.85,-0.19556
1620.86,-0.19516
1620.87,-0.19489
1620.88,-0.19517
1620.89,-0.19529
1620.9,-0.1953
1620.91,-0.1953
1620.92,-0.19539
1620.93,-0.19518
1620.94,-0.19556
1620.95,-0.19543
1620.96,-0.19531
1620.97,-0.19545
1620.98,-0.19496
1620.99,-0.19558
1621,-0.19498
1621.01,-0.19562
1621.02,-0.19514
1621.03,-0.19558
1621.04,-0.19491
1621.05,-0.19531
1621.06,-0.19525
1621.07,-0.19573
1621.08,-0.19506
1621.09,-0.19501
1621.1,-0.19522
1621.11,-0.19525
1621.12,-0.19519
1621.13,-0.19476
1621.14,-0.1958
1621.15,-0.19508
1621.16,-0.19536
1621.17,-0.19543
1621.18,-0.19498
1621.19,-0.19575
1621.2,-0.19459
1621.21,-0.19532
1621.22,-0.19507
1621.23,-0.19548
1621.24,-0.19476
1621.25,-0.19484
1621.26,-0.19495
1621.27,-0.19598
1621.28,-0.19555
1621.29,-0.19553
1621.3,-0.19544
1621.31,-0.19511
1621.32,-0.19537
1621.33,-0.19552
1621.34,-0.1955
1621.35,-0.1953
1621.36,-0.19617
1621.37,-0.19542
1621.38,-0.19562
1621.39,-0.19594
1621.4,-0.19567
1621.41,-0.19547
1621.42,-0.19583
1621.43,-0.19555
1621.44,-0.19584
1621.45,-0.19569
1621.46,-0.19577
1621.47,-0.19536
1621.48,-0.19583
1621.49,-0.19533
1621.5,-0.19682
1621.51,-0.19562
1621.52,-0.19572
1621.53,-0.19527
1621.54,-0.19577
1621.55,-0.19586
1621.56,-0.19589
1621.57,-0.1956
1621.58,-0.19599
1621.59,-0.19576
1621.6,-0.19572
1621.61,-0.19608
1621.62,-0.19583
1621.63,-0.19607
1621.64,-0.19631
1621.65,-0.19602
1621.66,-0.19569
1621.67,-0.19601
1621.68,-0.19601
1621.69,-0.19604
1621.7,-0.19646
1621.71,-0.19587
1621.72,-0.19624
1621.73,-0.19608
1621.74,-0.1959
1621.75,-0.1967
1621.76,-0.19568
1621.77,-0.19628
1621.78,-0.19571
1621.79,-0.19623
1621.8,-0.19612
1621.81,-0.1959
1621.82,-0.1962
1621.83,-0.19608
1621.84,-0.19636
1621.85,-0.19639
1621.86,-0.19651
1621.87,-0.196
1621.88,-0.19584
1621.89,-0.19609
1621.9,-0.19612
1621.91,-0.19625
1621.92,-0.19647
1621.93,-0.1966
1621.94,-0.19582
1621.95,-0.19698
1621.96,-0.19613
1621.97,-0.1965
1621.98,-0.19622
1621.99,-0.19744
1622,-0.19516
1622.01,-0.19584
1622.02,-0.19667
1622.03,-0.19656
1622.04,-0.19622
1622.05,-0.19651
1622.06,-0.19616
1622.07,-0.19644
1622.08,-0.19661
1622.09,-0.19632
1622.1,-0.19599
1622.11,-0.1969
1622.12,-0.196
1622.13,-0.19697
1622.14,-0.19613
1622.15,-0.19644
1622.16,-0.19623
1622.17,-0.19657
1622.18,-0.19613
1622.19,-0.1963
1622.2,-0.19628
1622.21,-0.1963
1622.22,-0.19608
1622.23,-0.19625
1622.24,-0.19624
1622.25,-0.19599
1622.26,-0.1965
1622.27,-0.19606
1622.28,-0.19632
1622.29,-0.19666
1622.3,-0.19665
1622.31,-0.19592
1622.32,-0.19611
1622.33,-0.19633
1622.34,-0.19606
1622.35,-0.19698
1622.36,-0.19591
1622.37,-0.1962
1622.38,-0.19643
1622.39,-0.19614
1622.4,-0.19677
1622.41,-0.19647
1622.42,-0.19655
1622.43,-0.19615
1622.44,-0.19637
1622.45,-0.19642
1622.46,-0.19623
1622.47,-0.19609
1622.48,-0.19648
1622.49,-0.1963
1622.5,-0.19585
1622.51,-0.19726
1622.52,-0.19645
1622.53,-0.19667
1622.54,-0.19608
1622.55,-0.19653
1622.56,-0.1964
1622.57,-0.19674
1622.58,-0.19669
1622.59,-0.19678
1622.6,-0.19667
1622.61,-0.19649
1622.62,-0.19705
1622.63,-0.19666
1622.64,-0.1971
1622.65,-0.19691
1622.66,-0.1965
1622.67,-0.19599
1622.68,-0.1964
1622.69,-0.19689
1622.7,-0.19668
1622.71,-0.19719
1622.72,-0.1966
1622.73,-0.1968
1622.74,-0.19688
1622.75,-0.1963
1622.76,-0.19635
1622.77,-0.19665
1622.78,-0.19651
1622.79,-0.19711
1622.8,-0.19749
1622.81,-0.19698
1622.82,-0.19712
1622.83,-0.1971
1622.84,-0.1974
1622.85,-0.19739
1622.86,-0.19674
1622.87,-0.19757
1622.88,-0.19725
1622.89,-0.19661
1622.9,-0.19665
1622.91,-0.19743
1622.92,-0.19721
1622.93,-0.1969
1622.94,-0.19746
1622.95,-0.19693
1622.96,-0.19705
1622.97,-0.19737
1622.98,-0.19699
1622.99,-0.19737
1623,-0.19701
1623.01,-0.1972
1623.02,-0.19726
1623.03,-0.19711
1623.04,-0.19771
1623.05,-0.19704
1623.06,-0.19804
1623.07,-0.19746
1623.08,-0.19741
1623.09,-0.19789
1623.1,-0.19689
1623.11,-0.19741
1623.12,-0.19734
1623.13,-0.19726
1623.14,-0.19708
1623.15,-0.19765
1623.16,-0.19742
1623.17,-0.1976
1623.18,-0.19732
1623.19,-0.19768
1623.2,-0.19739
1623.21,-0.1974
1623.22,-0.19685
1623.23,-0.19695
1623.24,-0.19703
1623.25,-0.19838
1623.26,-0.197
1623.27,-0.19695
1623.28,-0.19726
1623.29,-0.19726
1623.3,-0.19758
1623.31,-0.1978
1623.32,-0.1971
1623.33,-0.19683
1623.34,-0.19677
1623.35,-0.19696
1623.36,-0.1968
1623.37,-0.19677
1623.38,-0.19688
1623.39,-0.19647
1623.4,-0.19694
1623.41,-0.19674
1623.42,-0.19668
1623.43,-0.19712
1623.44,-0.19626
1623.45,-0.19681
1623.46,-0.19651
1623.47,-0.19664
1623.48,-0.19658
1623.49,-0.1966
1623.5,-0.19688
1623.51,-0.19658
1623.52,-0.19718
1623.53,-0.19663
1623.54,-0.19672
1623.55,-0.1971
1623.56,-0.19624
1623.57,-0.19659
1623.58,-0.19678
1623.59,-0.19657
1623.6,-0.19671
1623.61,-0.19679
1623.62,-0.19709
1623.63,-0.19677
1623.64,-0.19716
1623.65,-0.19708
1623.66,-0.19697
1623.67,-0.19693
1623.68,-0.19753
1623.69,-0.19642
1623.7,-0.19674
1623.71,-0.19706
1623.72,-0.19694
1623.73,-0.19706
1623.74,-0.19742
1623.75,-0.19718
1623.76,-0.19674
1623.77,-0.19731
1623.78,-0.19675
1623.79,-0.19684
1623.8,-0.19716
1623.81,-0.19699
1623.82,-0.19721
1623.83,-0.19671
1623.84,-0.19733
1623.85,-0.19712
1623.86,-0.19756
1623.87,-0.19721
1623.88,-0.19722
1623.89,-0.19734
1623.9,-0.19706
1623.91,-0.19731
1623.92,-0.19714
1623.93,-0.19799
1623.94,-0.19744
1623.95,-0.19731
1623.96,-0.1979
1623.97,-0.19809
1623.98,-0.19783
1623.99,-0.1975
1624,-0.19807
1624.01,-0.19683
1624.02,-0.198
1624.03,-0.19734
1624.04,-0.19724
1624.05,-0.19739
1624.06,-0.19725
1624.07,-0.19763
1624.08,-0.19742
1624.09,-0.19766
1624.1,-0.19732
1624.11,-0.19801
1624.12,-0.19732
1624.13,-0.19773
1624.14,-0.19783
1624.15,-0.19753
1624.16,-0.19805
1624.17,-0.19755
1624.18,-0.19801
1624.19,-0.19779
1624.2,-0.19797
1624.21,-0.19801
1624.22,-0.19807
1624.23,-0.19795
1624.24,-0.1981
1624.25,-0.19942
1624.26,-0.19756
1624.27,-0.19871
1624.28,-0.19844
1624.29,-0.19865
1624.3,-0.19855
1624.31,-0.19841
1624.32,-0.19874
1624.33,-0.1984
1624.34,-0.19793
1624.35,-0.19849
1624.36,-0.19817
1624.37,-0.19826
1624.38,-0.19829
1624.39,-0.1986
1624.4,-0.19796
1624.41,-0.19845
1624.42,-0.19828
1624.43,-0.19823
1624.44,-0.19806
1624.45,-0.198
1624.46,-0.19804
1624.47,-0.1978
1624.48,-0.1984
1624.49,-0.19819
1624.5,-0.19852
1624.51,-0.19812
1624.52,-0.19789
1624.53,-0.19812
1624.54,-0.19796
1624.55,-0.198
1624.56,-0.19728
1624.57,-0.19763
1624.58,-0.19744
1624.59,-0.19746
1624.6,-0.19731
1624.61,-0.19737
1624.62,-0.19751
1624.63,-0.19742
1624.64,-0.19729
1624.65,-0.19722
1624.66,-0.19715
1624.67,-0.197
1624.68,-0.19741
1624.69,-0.19732
1624.7,-0.19707
1624.71,-0.19738
1624.72,-0.19677
1624.73,-0.19769
1624.74,-0.19709
1624.75,-0.19718
1624.76,-0.19698
1624.77,-0.19743
1624.78,-0.19691
1624.79,-0.19716
1624.8,-0.19702
1624.81,-0.1968
1624.82,-0.19752
1624.83,-0.19682
1624.84,-0.1973
1624.85,-0.19685
1624.86,-0.19733
1624.87,-0.19634
1624.88,-0.19751
1624.89,-0.19678
1624.9,-0.19662
1624.91,-0.1966
1624.92,-0.19676
1624.93,-0.19689
1624.94,-0.19695
1624.95,-0.19738
1624.96,-0.19691
1624.97,-0.19694
1624.98,-0.19745
1624.99,-0.19721
1625,-0.19717
1625.01,-0.1969
1625.02,-0.19725
1625.03,-0.19716
1625.04,-0.19708
1625.05,-0.19693
1625.06,-0.1966
1625.07,-0.19706
1625.08,-0.1969
1625.09,-0.19721
1625.1,-0.1973
1625.11,-0.19747
1625.12,-0.19691
1625.13,-0.1974
1625.14,-0.19744
1625.15,-0.19697
1625.16,-0.19719
1625.17,-0.19735
1625.18,-0.19745
1625.19,-0.1975
1625.2,-0.19781
1625.21,-0.19789
1625.22,-0.19773
1625.23,-0.19744
1625.24,-0.19754
1625.25,-0.1975
1625.26,-0.19782
1625.27,-0.19736
1625.28,-0.19839
1625.29,-0.19772
1625.3,-0.19814
1625.31,-0.19815
1625.32,-0.19832
1625.33,-0.19796
1625.34,-0.19815
1625.35,-0.19781
1625.36,-0.19743
1625.37,-0.19818
1625.38,-0.19818
1625.39,-0.19845
1625.4,-0.19807
1625.41,-0.19863
1625.42,-0.19904
1625.43,-0.19866
1625.44,-0.19877
1625.45,-0.19887
1625.46,-0.19821
1625.47,-0.19936
1625.48,-0.19891
1625.49,-0.19866
1625.5,-0.19914
1625.51,-0.19904
1625.52,-0.19956
1625.53,-0.19864
1625.54,-0.19941
1625.55,-0.19883
1625.56,-0.19836
1625.57,-0.19921
1625.58,-0.1985
1625.59,-0.19905
1625.6,-0.19861
1625.61,-0.19889
1625.62,-0.19874
1625.63,-0.19887
1625.64,-0.19898
1625.65,-0.19926
1625.66,-0.19898
1625.67,-0.19931
1625.68,-0.19884
1625.69,-0.1993
1625.7,-0.19885
1625.71,-0.19894
1625.72,-0.1994
1625.73,-0.19955
1625.74,-0.19898
1625.75,-0.19949
1625.76,-0.19953
1625.77,-0.19975
1625.78,-0.19928
1625.79,-0.19934
1625.8,-0.19891
1625.81,-0.19891
1625.82,-0.19909
1625.83,-0.19885
1625.84,-0.19907
1625.85,-0.19895
1625.86,-0.19933
1625.87,-0.19864
1625.88,-0.19883
1625.89,-0.19896
1625.9,-0.19864
1625.91,-0.19887
1625.92,-0.19856
1625.93,-0.1989
1625.94,-0.19937
1625.95,-0.199
1625.96,-0.19923
1625.97,-0.19922
1625.98,-0.19919
1625.99,-0.1991
1626,-0.19902
1626.01,-0.19846
1626.02,-0.19863
1626.03,-0.19862
1626.04,-0.19856
1626.05,-0.19849
1626.06,-0.19895
1626.07,-0.19896
1626.08,-0.19854
1626.09,-0.1993
1626.1,-0.19873
1626.11,-0.19911
1626.12,-0.19858
1626.13,-0.19814
1626.14,-0.19856
1626.15,-0.19837
1626.16,-0.19782
1626.17,-0.19853
1626.18,-0.19867
1626.19,-0.19794
1626.2,-0.19863
1626.21,-0.19856
1626.22,-0.19836
1626.23,-0.19847
1626.24,-0.19765
1626.25,-0.19697
1626.26,-0.19853
1626.27,-0.19818
1626.28,-0.19873
1626.29,-0.19874
1626.3,-0.19884
1626.31,-0.19933
1626.32,-0.19861
1626.33,-0.19905
1626.34,-0.199
1626.35,-0.19857
1626.36,-0.19875
1626.37,-0.19891
1626.38,-0.19871
1626.39,-0.19888
1626.4,-0.19897
1626.41,-0.19915
1626.42,-0.19949
1626.43,-0.19854
1626.44,-0.19931
1626.45,-0.19852
1626.46,-0.1985
1626.47,-0.19864
1626.48,-0.19817
1626.49,-0.19851
1626.5,-0.19823
1626.51,-0.19846
1626.52,-0.19882
1626.53,-0.19849
1626.54,-0.19927
1626.55,-0.19868
1626.56,-0.1983
1626.57,-0.19852
1626.58,-0.19835
1626.59,-0.19881
1626.6,-0.19839
1626.61,-0.19913
1626.62,-0.19896
1626.63,-0.19921
1626.64,-0.19933
1626.65,-0.1998
1626.66,-0.19961
1626.67,-0.19985
1626.68,-0.19947
1626.69,-0.19956
1626.7,-0.19983
1626.71,-0.19936
1626.72,-0.19942
1626.73,-0.19888
1626.74,-0.1995
1626.75,-0.1993
1626.76,-0.1993
1626.77,-0.19993
1626.78,-0.19913
1626.79,-0.19952
1626.8,-0.19905
1626.81,-0.19948
1626.82,-0.19922
1626.83,-0.19916
1626.84,-0.19921
1626.85,-0.20001
1626.86,-0.19995
1626.87,-0.20015
1626.88,-0.20013
1626.89,-0.20045
1626.9,-0.20073
1626.91,-0.20037
1626.92,-0.20037
1626.93,-0.20018
1626.94,-0.20039
1626.95,-0.20052
1626.96,-0.20032
1626.97,-0.20077
1626.98,-0.19971
1626.99,-0.20076
1627,-0.19994
1627.01,-0.20008
1627.02,-0.19997
1627.03,-0.19968
1627.04,-0.20007
1627.05,-0.20019
1627.06,-0.2
1627.07,-0.20066
1627.08,-0.19996
1627.09,-0.20069
1627.1,-0.20117
1627.11,-0.20015
1627.12,-0.20047
1627.13,-0.20023
1627.14,-0.20011
1627.15,-0.20026
1627.16,-0.19978
1627.17,-0.20025
1627.18,-0.19963
1627.19,-0.2002
1627.2,-0.20023
1627.21,-0.20042
1627.22,-0.20063
1627.23,-0.19968
1627.24,-0.20008
1627.25,-0.19944
1627.26,-0.20001
1627.27,-0.19984
1627.28,-0.19908
1627.29,-0.19993
1627.3,-0.19986
1627.31,-0.19987
1627.32,-0.19992
1627.33,-0.19985
1627.34,-0.19979
1627.35,-0.19935
1627.36,-0.19945
1627.37,-0.19961
1627.38,-0.19962
1627.39,-0.19984
1627.4,-0.19904
1627.41,-0.19917
1627.42,-0.1995
1627.43,-0.20002
1627.44,-0.1996
1627.45,-0.20004
1627.46,-0.19978
1627.47,-0.19933
1627.48,-0.19961
1627.49,-0.19952
1627.5,-0.19982
1627.51,-0.19935
1627.52,-0.19988
1627.53,-0.19978
1627.54,-0.19992
1627.55,-0.19973
1627.56,-0.19965
1627.57,-0.19953
1627.58,-0.19926
1627.59,-0.19969
1627.6,-0.19929
1627.61,-0.19952
1627.62,-0.19962
1627.63,-0.19944
1627.64,-0.19999
1627.65,-0.19964
1627.66,-0.19958
1627.67,-0.19952
1627.68,-0.19984
1627.69,-0.19889
1627.7,-0.19947
1627.71,-0.1985
1627.72,-0.19899
1627.73,-0.1994
1627.74,-0.19968
1627.75,-0.19948
1627.76,-0.19958
1627.77,-0.19952
1627.78,-0.19921
1627.79,-0.19963
1627.8,-0.19928
1627.81,-0.19967
1627.82,-0.1998
1627.83,-0.19938
1627.84,-0.19952
1627.85,-0.19959
1627.86,-0.19987
1627.87,-0.19951
1627.88,-0.19998
1627.89,-0.19973
1627.9,-0.2001
1627.91,-0.19993
1627.92,-0.20007
1627.93,-0.20018
1627.94,-0.19993
1627.95,-0.20473
1627.96,-0.21613
1627.97,-0.24143
1627.98,-0.28646
1627.99,-0.35134
1628,-0.42697
1628.01,-0.50641
1628.02,-0.58173
1628.03,-0.63487
1628.04,-0.65218
1628.05,-0.63067
1628.06,-0.57658
1628.07,-0.50249
1628.08,-0.42156
1628.09,-0.35044
1628.1,-0.29233
1628.11,-0.25205
1628.12,-0.22591
1628.13,-0.21092
1628.14,-0.20442
1628.15,-0.20146
1628.16,-0.20062
1628.17,-0.20087
1628.18,-0.20124
1628.19,-0.2009
1628.2,-0.20112
1628.21,-0.20134
1628.22,-0.20147
1628.23,-0.20083
1628.24,-0.20109
1628.25,-0.201
1628.26,-0.20141
1628.27,-0.20175
1628.28,-0.20143
1628.29,-0.20163
1628.3,-0.20202
1628.31,-0.20203
1628.32,-0.2023
1628.33,-0.20208
1628.34,-0.20209
1628.35,-0.2023
1628.36,-0.20165
1628.37,-0.20143
1628.38,-0.20186
1628.39,-0.20119
1628.4,-0.20187
1628.41,-0.20191
1628.42,-0.2017
1628.43,-0.2019
1628.44,-0.20187
1628.45,-0.20169
1628.46,-0.20175
1628.47,-0.20157
1628.48,-0.20131
1628.49,-0.20161
1628.5,-0.20145
1628.51,-0.20109
1628.52,-0.20096
1628.53,-0.201
1628.54,-0.20128
1628.55,-0.20079
1628.56,-0.20157
1628.57,-0.20133
1628.58,-0.20138
1628.59,-0.20106
1628.6,-0.20095
1628.61,-0.20112
1628.62,-0.20119
1628.63,-0.20102
1628.64,-0.20105
1628.65,-0.2013
1628.66,-0.20129
1628.67,-0.20131
1628.68,-0.20157
1628.69,-0.20132
1628.7,-0.20102
1628.71,-0.20116
1628.72,-0.20093
1628.73,-0.20127
1628.74,-0.20068
1628.75,-0.2011
1628.76,-0.20092
1628.77,-0.201
1628.78,-0.20084
1628.79,-0.20078
1628.8,-0.2009
1628.81,-0.20044
1628.82,-0.20079
1628.83,-0.20066
1628.84,-0.20031
1628.85,-0.20089
1628.86,-0.20006
1628.87,-0.20104
1628.88,-0.20041
1628.89,-0.20118
1628.9,-0.20045
1628.91,-0.20035
1628.92,-0.20034
1628.93,-0.20038
1628.94,-0.20046
1628.95,-0.20025
1628.96,-0.20097
1628.97,-0.20057
1628.98,-0.20083
1628.99,-0.2008
1629,-0.20109
1629.01,-0.20152
1629.02,-0.2014
1629.03,-0.20113
1629.04,-0.20122
1629.05,-0.20131
1629.06,-0.20108
1629.07,-0.20136
1629.08,-0.20127
1629.09,-0.20082
1629.1,-0.20163
1629.11,-0.201
1629.12,-0.20134
1629.13,-0.20142
1629.14,-0.20086
1629.15,-0.20073
1629.16,-0.20048
1629.17,-0.20058
1629.18,-0.20041
1629.19,-0.20114
1629.2,-0.20036
1629.21,-0.20166
1629.22,-0.20105
1629.23,-0.20205
1629.24,-0.20109
1629.25,-0.20174
1629.26,-0.20077
1629.27,-0.20144
1629.28,-0.20164
1629.29,-0.20115
1629.3,-0.2014
1629.31,-0.20124
1629.32,-0.20147
1629.33,-0.20127
1629.34,-0.20088
1629.35,-0.20123
1629.36,-0.20034
1629.37,-0.20155
1629.38,-0.20072
1629.39,-0.20083
1629.4,-0.20086
1629.41,-0.20088
1629.42,-0.20127
1629.43,-0.20157
1629.44,-0.20192
1629.45,-0.20177
1629.46,-0.20208
1629.47,-0.20166
1629.48,-0.20213
1629.49,-0.20155
1629.5,-0.20201
1629.51,-0.20193
1629.52,-0.20247
1629.53,-0.20224
1629.54,-0.202
1629.55,-0.20275
1629.56,-0.20295
1629.57,-0.20318
1629.58,-0.20301
1629.59,-0.20264
1629.6,-0.20252
1629.61,-0.20273
1629.62,-0.20277
1629.63,-0.20265
1629.64,-0.20278
1629.65,-0.20227
1629.66,-0.20302
1629.67,-0.20246
1629.68,-0.20246
1629.69,-0.20267
1629.7,-0.20163
1629.71,-0.20203
1629.72,-0.20158
1629.73,-0.20201
1629.74,-0.20211
1629.75,-0.2026
1629.76,-0.20194
1629.77,-0.2021
1629.78,-0.2025
1629.79,-0.20229
1629.8,-0.20242
1629.81,-0.20214
1629.82,-0.2026
1629.83,-0.20249
1629.84,-0.20195
1629.85,-0.20266
1629.86,-0.20265
1629.87,-0.20223
1629.88,-0.20256
1629.89,-0.20254
1629.9,-0.20253
1629.91,-0.202
1629.92,-0.20198
1629.93,-0.2015
1629.94,-0.20215
1629.95,-0.2016
1629.96,-0.20143
1629.97,-0.20167
1629.98,-0.20123
1629.99,-0.20205
1630,-0.20173
1630.01,-0.20187
1630.02,-0.20128
1630.03,-0.20174
1630.04,-0.20167
1630.05,-0.20159
1630.06,-0.20163
1630.07,-0.20185
1630.08,-0.20215
1630.09,-0.20207
1630.1,-0.20247
1630.11,-0.2019
1630.12,-0.2029
1630.13,-0.20269
1630.14,-0.20227
1630.15,-0.20194
1630.16,-0.20233
1630.17,-0.20209
1630.18,-0.20177
1630.19,-0.20235
1630.2,-0.20107
1630.21,-0.20197
1630.22,-0.20212
1630.23,-0.20195
1630.24,-0.20147
1630.25,-0.20205
1630.26,-0.20154
1630.27,-0.20086
1630.28,-0.20183
1630.29,-0.2018
1630.3,-0.20152
1630.31,-0.20227
1630.32,-0.20271
1630.33,-0.2034
1630.34,-0.20299
1630.35,-0.20494
1630.36,-0.21124
1630.37,-0.22823
1630.38,-0.26656
1630.39,-0.34337
1630.4,-0.44595
1630.41,-0.59076
1630.42,-0.75955
1630.43,-0.91693
1630.44,-1.04035
1630.45,-1.09816
1630.46,-1.08681
1630.47,-1.0107
1630.48,-0.88622
1630.49,-0.7348
1630.5,-0.58043
1630.51,-0.45436
1630.52,-0.34662
1630.53,-0.27639
1630.54,-0.23612
1630.55,-0.21562
1630.56,-0.20762
1630.57,-0.20454
1630.58,-0.20352
1630.59,-0.20385
1630.6,-0.20387
1630.61,-0.20358
1630.62,-0.20361
1630.63,-0.20309
1630.64,-0.20316
1630.65,-0.20314
1630.66,-0.20356
1630.67,-0.20289
1630.68,-0.20276
1630.69,-0.20311
1630.7,-0.20255
1630.71,-0.2025
1630.72,-0.20249
1630.73,-0.20287
1630.74,-0.20266
1630.75,-0.20239
1630.76,-0.2031
1630.77,-0.20265
1630.78,-0.20312
1630.79,-0.20359
1630.8,-0.20388
1630.81,-0.20423
1630.82,-0.20444
1630.83,-0.20384
1630.84,-0.20441
1630.85,-0.20508
1630.86,-0.20462
1630.87,-0.20488
1630.88,-0.20463
1630.89,-0.20498
1630.9,-0.20428
1630.91,-0.20424
1630.92,-0.2038
1630.93,-0.20372
1630.94,-0.20383
1630.95,-0.20365
1630.96,-0.20375
1630.97,-0.20407
1630.98,-0.20432
1630.99,-0.20426
1631,-0.20447
1631.01,-0.20446
1631.02,-0.20442
1631.03,-0.20397
1631.04,-0.20323
1631.05,-0.203
1631.06,-0.20271
1631.07,-0.20296
1631.08,-0.20242
1631.09,-0.20254
1631.1,-0.20295
1631.11,-0.20243
1631.12,-0.20281
1631.13,-0.20269
1631.14,-0.20237
1631.15,-0.20207
1631.16,-0.20237
1631.17,-0.20298
1631.18,-0.20227
1631.19,-0.20286
1631.2,-0.20397
1631.21,-0.20402
1631.22,-0.20411
1631.23,-0.20471
1631.24,-0.20487
1631.25,-0.20494
1631.26,-0.20476
1631.27,-0.20419
1631.28,-0.20442
1631.29,-0.204
1631.3,-0.20436
1631.31,-0.20392
1631.32,-0.20411
1631.33,-0.20392
1631.34,-0.2035
1631.35,-0.20384
1631.36,-0.20267
1631.37,-0.20273
1631.38,-0.2023
1631.39,-0.20212
1631.4,-0.20167
1631.41,-0.20188
1631.42,-0.20244
1631.43,-0.20202
1631.44,-0.2026
1631.45,-0.20241
1631.46,-0.20254
1631.47,-0.20251
1631.48,-0.20238
1631.49,-0.20331
1631.5,-0.20165
1631.51,-0.20307
1631.52,-0.20238
1631.53,-0.2034
1631.54,-0.20346
1631.55,-0.20468
1631.56,-0.20436
1631.57,-0.20565
1631.58,-0.20534
1631.59,-0.20533
1631.6,-0.20561
1631.61,-0.20466
1631.62,-0.20459
1631.63,-0.2044
1631.64,-0.2037
1631.65,-0.20344
1631.66,-0.20301
1631.67,-0.2034
1631.68,-0.20316
1631.69,-0.20344
1631.7,-0.20244
1631.71,-0.20242
1631.72,-0.20206
1631.73,-0.20231
1631.74,-0.20366
1631.75,-0.20301
1631.76,-0.20201
1631.77,-0.20359
1631.78,-0.20382
1631.79,-0.20442
1631.8,-0.20466
1631.81,-0.20519
1631.82,-0.20493
1631.83,-0.20487
1631.84,-0.20437
1631.85,-0.20528
1631.86,-0.20401
1631.87,-0.20421
1631.88,-0.20371
1631.89,-0.20339
1631.9,-0.20298
1631.91,-0.20375
1631.92,-0.20333
1631.93,-0.20284
1631.94,-0.20247
1631.95,-0.20309
1631.96,-0.20311
1631.97,-0.2034
1631.98,-0.20409
1631.99,-0.20417
1632,-0.20464
1632.01,-0.2053
1632.02,-0.20516
1632.03,-0.20529
1632.04,-0.20456
1632.05,-0.20528
1632.06,-0.20506
1632.07,-0.20453
1632.08,-0.20553
1632.09,-0.20507
1632.1,-0.20569
1632.11,-0.20614
1632.12,-0.20604
1632.13,-0.20644
1632.14,-0.20553
1632.15,-0.20545
1632.16,-0.20476
1632.17,-0.20445
1632.18,-0.20384
1632.19,-0.20385
1632.2,-0.20367
1632.21,-0.20372
1632.22,-0.20375
1632.23,-0.20351
1632.24,-0.20365
1632.25,-0.20354
1632.26,-0.20328
1632.27,-0.20321
1632.28,-0.20321
1632.29,-0.20327
1632.3,-0.20347
1632.31,-0.2034
1632.32,-0.20296
1632.33,-0.20391
1632.34,-0.20379
1632.35,-0.20406
1632.36,-0.20368
1632.37,-0.20383
1632.38,-0.20298
1632.39,-0.20388
1632.4,-0.20396
1632.41,-0.20307
1632.42,-0.20375
1632.43,-0.20324
1632.44,-0.20355
1632.45,-0.2037
1632.46,-0.2035
1632.47,-0.20289
1632.48,-0.20332
1632.49,-0.20278
1632.5,-0.20272
1632.51,-0.20283
1632.52,-0.20288
1632.53,-0.20317
1632.54,-0.20252
1632.55,-0.20319
1632.56,-0.20345
1632.57,-0.20336
1632.58,-0.2036
1632.59,-0.20365
1632.6,-0.20345
1632.61,-0.2032
1632.62,-0.20346
1632.63,-0.20354
1632.64,-0.20411
1632.65,-0.20375
1632.66,-0.20396
1632.67,-0.20406
1632.68,-0.20439
1632.69,-0.20399
1632.7,-0.20433
1632.71,-0.20388
1632.72,-0.20421
1632.73,-0.21037
1632.74,-0.22878
1632.75,-0.27049
1632.76,-0.34508
1632.77,-0.45384
1632.78,-0.58581
1632.79,-0.7269
1632.8,-0.84593
1632.81,-0.92963
1632.82,-0.94658
1632.83,-0.90556
1632.84,-0.828
1632.85,-0.72329
1632.86,-0.5925
1632.87,-0.47588
1632.88,-0.37519
1632.89,-0.29678
1632.9,-0.24937
1632.91,-0.22375
1632.92,-0.21012
1632.93,-0.20513
1632.94,-0.20306
1632.95,-0.20274
1632.96,-0.20298
1632.97,-0.20326
1632.98,-0.20349
1632.99,-0.20316
1633,-0.20346
1633.01,-0.20343
1633.02,-0.20327
1633.03,-0.20386
1633.04,-0.20351
1633.05,-0.2036
1633.06,-0.20437
1633.07,-0.20295
1633.08,-0.20495
1633.09,-0.20572
1633.1,-0.2048
1633.11,-0.20534
1633.12,-0.20607
1633.13,-0.20553
1633.14,-0.206
1633.15,-0.20529
1633.16,-0.20502
1633.17,-0.2051
1633.18,-0.20419
1633.19,-0.20492
1633.2,-0.20515
1633.21,-0.20492
1633.22,-0.20553
1633.23,-0.20594
1633.24,-0.20606
1633.25,-0.20529
1633.26,-0.20598
1633.27,-0.20512
1633.28,-0.20506
1633.29,-0.20469
1633.3,-0.20493
1633.31,-0.20425
1633.32,-0.20448
1633.33,-0.20464
1633.34,-0.20437
1633.35,-0.20409
1633.36,-0.20455
1633.37,-0.20439
1633.38,-0.20383
1633.39,-0.20365
1633.4,-0.20398
1633.41,-0.20412
1633.42,-0.20443
1633.43,-0.20438
1633.44,-0.20493
1633.45,-0.20465
1633.46,-0.20597
1633.47,-0.20568
1633.48,-0.20601
1633.49,-0.20599
1633.5,-0.20625
1633.51,-0.2063
1633.52,-0.20624
1633.53,-0.20647
1633.54,-0.20616
1633.55,-0.20655
1633.56,-0.20601
1633.57,-0.20631
1633.58,-0.20574
1633.59,-0.2062
1633.6,-0.20551
1633.61,-0.20457
1633.62,-0.2046
1633.63,-0.2041
1633.64,-0.2038
1633.65,-0.20379
1633.66,-0.20394
1633.67,-0.20401
1633.68,-0.20366
1633.69,-0.20325
1633.7,-0.204
1633.71,-0.20338
1633.72,-0.20369
1633.73,-0.20271
1633.74,-0.20296
1633.75,-0.20294
1633.76,-0.20338
1633.77,-0.20339
1633.78,-0.20315
1633.79,-0.20404
1633.8,-0.20406
1633.81,-0.20476
1633.82,-0.20445
1633.83,-0.20479
1633.84,-0.20511
1633.85,-0.20547
1633.86,-0.2056
1633.87,-0.20532
1633.88,-0.20512
1633.89,-0.20433
1633.9,-0.20494
1633.91,-0.20356
1633.92,-0.20402
1633.93,-0.20322
1633.94,-0.20273
1633.95,-0.20281
1633.96,-0.20206
1633.97,-0.20271
1633.98,-0.2023
1633.99,-0.2026
1634,-0.2029
1634.01,-0.20274
1634.02,-0.2035
1634.03,-0.20355
1634.04,-0.20334
1634.05,-0.204
1634.06,-0.20453
1634.07,-0.20489
1634.08,-0.20516
1634.09,-0.20544
1634.1,-0.20502
1634.11,-0.20581
1634.12,-0.2049
1634.13,-0.20513
1634.14,-0.20455
1634.15,-0.2048
1634.16,-0.20389
1634.17,-0.2033
1634.18,-0.20342
1634.19,-0.20328
1634.2,-0.20359
1634.21,-0.20365
1634.22,-0.20333
1634.23,-0.20428
1634.24,-0.20462
1634.25,-0.20508
1634.26,-0.2037
1634.27,-0.20547
1634.28,-0.20451
1634.29,-0.20494
1634.3,-0.20458
1634.31,-0.20495
1634.32,-0.20465
1634.33,-0.20438
1634.34,-0.20515
1634.35,-0.20505
1634.36,-0.20518
1634.37,-0.20502
1634.38,-0.20572
1634.39,-0.20467
1634.4,-0.2051
1634.41,-0.20453
1634.42,-0.20475
1634.43,-0.20447
1634.44,-0.20453
1634.45,-0.20448
1634.46,-0.20442
1634.47,-0.20441
1634.48,-0.20445
1634.49,-0.20414
1634.5,-0.2042
1634.51,-0.20437
1634.52,-0.20407
1634.53,-0.2039
1634.54,-0.20419
1634.55,-0.20363
1634.56,-0.20406
1634.57,-0.20447
1634.58,-0.20424
1634.59,-0.20475
1634.6,-0.20444
1634.61,-0.20415
1634.62,-0.20406
1634.63,-0.20385
1634.64,-0.20395
1634.65,-0.20469
1634.66,-0.20443
1634.67,-0.20452
1634.68,-0.20475
1634.69,-0.20563
1634.7,-0.20543
1634.71,-0.20532
1634.72,-0.20546
1634.73,-0.20436
1634.74,-0.20673
1634.75,-0.2047
1634.76,-0.20494
1634.77,-0.20553
1634.78,-0.20534
1634.79,-0.20538
1634.8,-0.20548
1634.81,-0.20572
1634.82,-0.20509
1634.83,-0.20511
1634.84,-0.20487
1634.85,-0.20472
1634.86,-0.20472
1634.87,-0.20425
1634.88,-0.20518
1634.89,-0.20444
1634.9,-0.20484
1634.91,-0.20516
1634.92,-0.20476
1634.93,-0.20547
1634.94,-0.20523
1634.95,-0.20517
1634.96,-0.205
1634.97,-0.20497
1634.98,-0.20491
1634.99,-0.20494
1635,-0.20493
1635.01,-0.2055
1635.02,-0.20612
1635.03,-0.20545
1635.04,-0.20552
1635.05,-0.20511
1635.06,-0.20493
1635.07,-0.20447
1635.08,-0.20427
1635.09,-0.20383
1635.1,-0.20432
1635.11,-0.20403
1635.12,-0.20423
1635.13,-0.2049
1635.14,-0.20428
1635.15,-0.20491
1635.16,-0.20382
1635.17,-0.20396
1635.18,-0.20353
1635.19,-0.20372
1635.2,-0.20416
1635.21,-0.20487
1635.22,-0.20548
1635.23,-0.20686
1635.24,-0.20753
1635.25,-0.20675
1635.26,-0.20822
1635.27,-0.23152
1635.28,-0.30851
1635.29,-0.47831
1635.3,-0.76869
1635.31,-1.17964
1635.32,-1.66093
1635.33,-2.143
1635.34,-2.59248
1635.35,-2.91274
1635.36,-3.05799
1635.37,-3.04145
1635.38,-2.87605
1635.39,-2.55932
1635.4,-2.14372
1635.41,-1.66966
1635.42,-1.18128
1635.43,-0.79189
1635.44,-0.5178
1635.45,-0.35421
1635.46,-0.27073
1635.47,-0.23261
1635.48,-0.21576
1635.49,-0.20881
1635.5,-0.20632
1635.51,-0.20571
1635.52,-0.20517
1635.53,-0.2051
1635.54,-0.20469
1635.55,-0.20466
1635.56,-0.20426
1635.57,-0.20425
1635.58,-0.20458
1635.59,-0.20429
1635.6,-0.2043
1635.61,-0.20425
1635.62,-0.20381
1635.63,-0.20435
1635.64,-0.20367
1635.65,-0.20449
1635.66,-0.20397
1635.67,-0.20431
1635.68,-0.20502
1635.69,-0.20503
1635.7,-0.20567
1635.71,-0.20571
1635.72,-0.20511
1635.73,-0.20649
1635.74,-0.20684
1635.75,-0.20641
1635.76,-0.20674
1635.77,-0.20655
1635.78,-0.20646
1635.79,-0.20634
1635.8,-0.20581
1635.81,-0.20702
1635.82,-0.20614
1635.83,-0.20654
1635.84,-0.20587
1635.85,-0.20581
1635.86,-0.20587
1635.87,-0.20648
1635.88,-0.20655
1635.89,-0.20696
1635.9,-0.2066
1635.91,-0.20667
1635.92,-0.207
1635.93,-0.20674
1635.94,-0.20611
1635.95,-0.20556
1635.96,-0.2052
1635.97,-0.20505
1635.98,-0.20522
1635.99,-0.20539
1636,-0.20492
1636.01,-0.20505
1636.02,-0.20574
1636.03,-0.20597
1636.04,-0.20548
1636.05,-0.20591
1636.06,-0.20566
1636.07,-0.20584
1636.08,-0.20559
1636.09,-0.20555
1636.1,-0.20628
1636.11,-0.20682
1636.12,-0.2074
1636.13,-0.20715
1636.14,-0.20801
1636.15,-0.2078
1636.16,-0.20815
1636.17,-0.20803
1636.18,-0.20783
1636.19,-0.20759
1636.2,-0.20747
1636.21,-0.20692
1636.22,-0.20718
1636.23,-0.2072
1636.24,-0.20758
1636.25,-0.20675
1636.26,-0.20739
1636.27,-0.20581
1636.28,-0.20546
1636.29,-0.20576
1636.3,-0.20529
1636.31,-0.20526
1636.32,-0.20495
1636.33,-0.20521
1636.34,-0.20518
1636.35,-0.20501
1636.36,-0.20537
1636.37,-0.20557
1636.38,-0.2056
1636.39,-0.205
1636.4,-0.20556
1636.41,-0.20518
1636.42,-0.20578
1636.43,-0.20535
1636.44,-0.2057
1636.45,-0.20668
1636.46,-0.20644
1636.47,-0.20728
1636.48,-0.20775
1636.49,-0.20807
1636.5,-0.20768
1636.51,-0.20783
1636.52,-0.2067
1636.53,-0.20664
1636.54,-0.2061
1636.55,-0.20579
1636.56,-0.2051
1636.57,-0.20518
1636.58,-0.20516
1636.59,-0.20464
1636.6,-0.20532
1636.61,-0.20464
1636.62,-0.20471
1636.63,-0.20512
1636.64,-0.20458
1636.65,-0.20497
1636.66,-0.20504
1636.67,-0.20583
1636.68,-0.20583
1636.69,-0.20656
1636.7,-0.20744
1636.71,-0.20788
1636.72,-0.20807
1636.73,-0.20701
1636.74,-0.2096
1636.75,-0.20708
1636.76,-0.20716
1636.77,-0.20643
1636.78,-0.20598
1636.79,-0.20568
1636.8,-0.20547
1636.81,-0.20567
1636.82,-0.20567
1636.83,-0.20516
1636.84,-0.20501
1636.85,-0.20494
1636.86,-0.20487
1636.87,-0.20509
1636.88,-0.20514
1636.89,-0.20549
1636.9,-0.20605
1636.91,-0.20596
1636.92,-0.20683
1636.93,-0.20723
1636.94,-0.20663
1636.95,-0.20703
1636.96,-0.20628
1636.97,-0.20707
1636.98,-0.20633
1636.99,-0.20665
1637,-0.20646
1637.01,-0.20685
1637.02,-0.20757
1637.03,-0.20763
1637.04,-0.20783
1637.05,-0.20826
1637.06,-0.20772
1637.07,-0.20671
1637.08,-0.20651
1637.09,-0.20616
1637.1,-0.20593
1637.11,-0.20584
1637.12,-0.20494
1637.13,-0.20536
1637.14,-0.20546
1637.15,-0.20545
1637.16,-0.20549
1637.17,-0.2054
1637.18,-0.20474
1637.19,-0.20532
1637.2,-0.20502
1637.21,-0.20545
1637.22,-0.20515
1637.23,-0.20532
1637.24,-0.20674
1637.25,-0.20643
1637.26,-0.20641
1637.27,-0.20711
1637.28,-0.20733
1637.29,-0.20728
1637.3,-0.20728
1637.31,-0.207
1637.32,-0.20677
1637.33,-0.20745
1637.34,-0.20704
1637.35,-0.20733
1637.36,-0.2069
1637.37,-0.20695
1637.38,-0.20692
1637.39,-0.20682
1637.4,-0.20685
1637.41,-0.20671
1637.42,-0.20681
1637.43,-0.20602
1637.44,-0.20648
1637.45,-0.20636
1637.46,-0.20685
1637.47,-0.20628
1637.48,-0.20711
1637.49,-0.20947
1637.5,-0.20939
1637.51,-0.20935
1637.52,-0.20904
1637.53,-0.22289
1637.54,-0.27641
1637.55,-0.39396
1637.56,-0.60633
1637.57,-0.9091
1637.58,-1.34113
1637.59,-1.80958
1637.6,-2.26216
1637.61,-2.61741
1637.62,-2.84045
1637.63,-2.89522
1637.64,-2.77803
1637.65,-2.53306
1637.66,-2.16046
1637.67,-1.73355
1637.68,-1.29862
1637.69,-0.90606
1637.7,-0.60044
1637.71,-0.41826
1637.72,-0.30218
1637.73,-0.24208
1637.74,-0.21833
1637.75,-0.21061
1637.76,-0.2079
1637.77,-0.20797
1637.78,-0.20771
1637.79,-0.20837
1637.8,-0.20823
1637.81,-0.20847
1637.82,-0.20898
1637.83,-0.20861
1637.84,-0.20901
1637.85,-0.20859
1637.86,-0.2084
1637.87,-0.20787
1637.88,-0.20786
1637.89,-0.20747
1637.9,-0.2074
1637.91,-0.20714
1637.92,-0.20742
1637.93,-0.20682
1637.94,-0.20657
1637.95,-0.20672
1637.96,-0.20651
1637.97,-0.20653
1637.98,-0.20605
1637.99,-0.20587
1638,-0.20675
1638.01,-0.20693
1638.02,-0.20749
1638.03,-0.20765
1638.04,-0.20848
1638.05,-0.20837
1638.06,-0.20871
1638.07,-0.2086
1638.08,-0.20825
1638.09,-0.20746
1638.1,-0.20716
1638.11,-0.20662
1638.12,-0.20698
1638.13,-0.20653
1638.14,-0.20588
1638.15,-0.20634
1638.16,-0.20632
1638.17,-0.20566
1638.18,-0.20522
1638.19,-0.20538
1638.2,-0.20541
1638.21,-0.20558
1638.22,-0.20574
1638.23,-0.20657
1638.24,-0.20442
1638.25,-0.2077
1638.26,-0.20711
1638.27,-0.20749
1638.28,-0.20806
1638.29,-0.20841
1638.3,-0.20842
1638.31,-0.20878
1638.32,-0.20939
1638.33,-0.20917
1638.34,-0.2098
1638.35,-0.20971
1638.36,-0.20885
1638.37,-0.20924
1638.38,-0.20844
1638.39,-0.20906
1638.4,-0.20879
1638.41,-0.21013
1638.42,-0.2108
1638.43,-0.2123
1638.44,-0.21373
1638.45,-0.21317
1638.46,-0.21247
1638.47,-0.21148
1638.48,-0.21056
1638.49,-0.20999
1638.5,-0.20922
1638.51,-0.20882
1638.52,-0.20778
1638.53,-0.20769
1638.54,-0.20699
1638.55,-0.207
1638.56,-0.2069
1638.57,-0.20676
1638.58,-0.20743
1638.59,-0.20723
1638.6,-0.20722
1638.61,-0.2073
1638.62,-0.20731
1638.63,-0.20756
1638.64,-0.20707
1638.65,-0.20788
1638.66,-0.20794
1638.67,-0.20899
1638.68,-0.20899
1638.69,-0.20977
1638.7,-0.21046
1638.71,-0.21093
1638.72,-0.21109
1638.73,-0.21159
1638.74,-0.21133
1638.75,-0.21157
1638.76,-0.2111
1638.77,-0.21155
1638.78,-0.21097
1638.79,-0.21041
1638.8,-0.21067
1638.81,-0.21009
1638.82,-0.20942
1638.83,-0.20869
1638.84,-0.20867
1638.85,-0.20777
1638.86,-0.20745
1638.87,-0.20713
1638.88,-0.20654
1638.89,-0.20715
1638.9,-0.20702
1638.91,-0.20657
1638.92,-0.20701
1638.93,-0.20702
1638.94,-0.20736
1638.95,-0.20763
1638.96,-0.20731
1638.97,-0.20749
1638.98,-0.20787
1638.99,-0.20782
1639,-0.20893
1639.01,-0.20927
1639.02,-0.20984
1639.03,-0.21091
1639.04,-0.21219
1639.05,-0.21277
1639.06,-0.21275
1639.07,-0.21368
1639.08,-0.21303
1639.09,-0.2125
1639.1,-0.21144
1639.11,-0.21053
1639.12,-0.20951
1639.13,-0.20892
1639.14,-0.20799
1639.15,-0.20805
1639.16,-0.207
1639.17,-0.20751
1639.18,-0.20645
1639.19,-0.2068
1639.2,-0.20671
1639.21,-0.20685
1639.22,-0.20653
1639.23,-0.20726
1639.24,-0.20727
1639.25,-0.20834
1639.26,-0.20881
1639.27,-0.20997
1639.28,-0.21118
1639.29,-0.21199
1639.3,-0.2119
1639.31,-0.212
1639.32,-0.21168
1639.33,-0.21125
1639.34,-0.21034
1639.35,-0.20957
1639.36,-0.20897
1639.37,-0.208
1639.38,-0.20795
1639.39,-0.20718
1639.4,-0.20714
1639.41,-0.2068
1639.42,-0.20597
1639.43,-0.20645
1639.44,-0.20675
1639.45,-0.20704
1639.46,-0.2075
1639.47,-0.20816
1639.48,-0.20872
1639.49,-0.20933
1639.5,-0.20959
1639.51,-0.21002
1639.52,-0.20959
1639.53,-0.2093
1639.54,-0.20888
1639.55,-0.20871
1639.56,-0.20792
1639.57,-0.2082
1639.58,-0.20926
1639.59,-0.20959
1639.6,-0.2105
1639.61,-0.2104
1639.62,-0.21051
1639.63,-0.21014
1639.64,-0.20955
1639.65,-0.209
1639.66,-0.2084
1639.67,-0.20815
1639.68,-0.20808
1639.69,-0.20791
1639.7,-0.20743
1639.71,-0.20776
1639.72,-0.20723
1639.73,-0.20736
1639.74,-0.20688
1639.75,-0.20682
1639.76,-0.20678
1639.77,-0.20628
1639.78,-0.20594
1639.79,-0.20631
1639.8,-0.20658
1639.81,-0.20629
1639.82,-0.20684
1639.83,-0.2067
1639.84,-0.20729
1639.85,-0.207
1639.86,-0.20667
1639.87,-0.2077
1639.88,-0.20783
1639.89,-0.20731
1639.9,-0.20786
1639.91,-0.20886
1639.92,-0.20868
1639.93,-0.20888
1639.94,-0.20905
1639.95,-0.20921
1639.96,-0.2096
1639.97,-0.20834
1639.98,-0.20891
1639.99,-0.20796
1640,-0.20779
1640.01,-0.20773
1640.02,-0.20676
1640.03,-0.20787
1640.04,-0.20795
1640.05,-0.2082
1640.06,-0.20768
1640.07,-0.20781
1640.08,-0.20796
1640.09,-0.20753
1640.1,-0.20767
1640.11,-0.20825
1640.12,-0.20897
1640.13,-0.21007
1640.14,-0.21131
1640.15,-0.21165
1640.16,-0.21184
1640.17,-0.2183
1640.18,-0.24449
1640.19,-0.323
1640.2,-0.49777
1640.21,-0.78819
1640.22,-1.2039
1640.23,-1.6915
1640.24,-2.18969
1640.25,-2.62828
1640.26,-2.93239
1640.27,-3.06761
1640.28,-3.01958
1640.29,-2.80743
1640.3,-2.46612
1640.31,-2.0369
1640.32,-1.57037
1640.33,-1.15729
1640.34,-0.79176
1640.35,-0.53513
1640.36,-0.36273
1640.37,-0.27359
1640.38,-0.23064
1640.39,-0.2173
1640.4,-0.21166
1640.41,-0.21092
1640.42,-0.21089
1640.43,-0.21061
1640.44,-0.21073
1640.45,-0.21129
1640.46,-0.21112
1640.47,-0.21088
1640.48,-0.2116
1640.49,-0.21042
1640.5,-0.21184
1640.51,-0.2103
1640.52,-0.21012
1640.53,-0.20922
1640.54,-0.20896
1640.55,-0.20883
1640.56,-0.20827
1640.57,-0.20849
1640.58,-0.20844
1640.59,-0.20844
1640.6,-0.20884
1640.61,-0.20884
1640.62,-0.21032
1640.63,-0.21008
1640.64,-0.21148
1640.65,-0.21003
1640.66,-0.21121
1640.67,-0.21144
1640.68,-0.21179
1640.69,-0.21199
1640.7,-0.21166
1640.71,-0.21173
1640.72,-0.21079
1640.73,-0.21086
1640.74,-0.20921
1640.75,-0.20973
1640.76,-0.20827
1640.77,-0.20804
1640.78,-0.20785
1640.79,-0.2072
1640.8,-0.20755
1640.81,-0.20764
1640.82,-0.20825
1640.83,-0.2074
1640.84,-0.20798
1640.85,-0.20814
1640.86,-0.20741
1640.87,-0.20803
1640.88,-0.20848
1640.89,-0.20873
1640.9,-0.20903
1640.91,-0.20948
1640.92,-0.21107
1640.93,-0.21136
1640.94,-0.21141
1640.95,-0.21213
1640.96,-0.21221
1640.97,-0.21219
1640.98,-0.2115
1640.99,-0.21124
1641,-0.21091
1641.01,-0.21074
1641.02,-0.21071
1641.03,-0.21094
1641.04,-0.21156
1641.05,-0.21211
1641.06,-0.21216
1641.07,-0.21373
1641.08,-0.21349
1641.09,-0.21197
1641.1,-0.21377
1641.11,-0.21185
1641.12,-0.21155
1641.13,-0.21069
1641.14,-0.20988
1641.15,-0.20985
1641.16,-0.20915
1641.17,-0.20918
1641.18,-0.20885
1641.19,-0.20817
1641.2,-0.20852
1641.21,-0.20799
1641.22,-0.20794
1641.23,-0.20776
1641.24,-0.20864
1641.25,-0.20855
1641.26,-0.20918
1641.27,-0.20847
1641.28,-0.21024
1641.29,-0.21066
1641.3,-0.21122
1641.31,-0.21219
1641.32,-0.21224
1641.33,-0.21312
1641.34,-0.21376
1641.35,-0.21423
1641.36,-0.2145
1641.37,-0.21498
1641.38,-0.21476
1641.39,-0.21515
1641.4,-0.21493
1641.41,-0.21539
1641.42,-0.21423
1641.43,-0.21335
1641.44,-0.21194
1641.45,-0.21097
1641.46,-0.21079
1641.47,-0.20931
1641.48,-0.20917
1641.49,-0.20841
1641.5,-0.20872
1641.51,-0.20786
1641.52,-0.20841
1641.53,-0.20807
1641.54,-0.20759
1641.55,-0.20744
1641.56,-0.20753
1641.57,-0.2081
1641.58,-0.20622
1641.59,-0.2091
1641.6,-0.20788
1641.61,-0.20842
1641.62,-0.20929
1641.63,-0.2097
1641.64,-0.21062
1641.65,-0.2114
1641.66,-0.21307
1641.67,-0.21396
1641.68,-0.21545
1641.69,-0.21628
1641.7,-0.21608
1641.71,-0.21658
1641.72,-0.21616
1641.73,-0.21548
1641.74,-0.21371
1641.75,-0.21343
1641.76,-0.21124
1641.77,-0.21034
1641.78,-0.20923
1641.79,-0.20908
1641.8,-0.20841
1641.81,-0.20861
1641.82,-0.20823
1641.83,-0.20903
1641.84,-0.2081
1641.85,-0.20887
1641.86,-0.20888
1641.87,-0.20896
1641.88,-0.21004
1641.89,-0.21074
1641.9,-0.21193
1641.91,-0.21205
1641.92,-0.21457
1641.93,-0.21446
1641.94,-0.21529
1641.95,-0.21482
1641.96,-0.21416
1641.97,-0.2136
1641.98,-0.21222
1641.99,-0.21091
1642,-0.21019
1642.01,-0.20899
1642.02,-0.20882
1642.03,-0.20873
1642.04,-0.20864
1642.05,-0.20887
1642.06,-0.2083
1642.07,-0.20957
1642.08,-0.20916
1642.09,-0.2105
1642.1,-0.21018
1642.11,-0.21027
1642.12,-0.2111
1642.13,-0.21187
1642.14,-0.21244
1642.15,-0.21217
1642.16,-0.2117
1642.17,-0.21138
1642.18,-0.21157
1642.19,-0.2107
1642.2,-0.21121
1642.21,-0.21097
1642.22,-0.21134
1642.23,-0.2109
1642.24,-0.21337
1642.25,-0.2115
1642.26,-0.21189
1642.27,-0.21031
1642.28,-0.21104
1642.29,-0.21047
1642.3,-0.20982
1642.31,-0.21003
1642.32,-0.20892
1642.33,-0.209
1642.34,-0.20913
1642.35,-0.20899
1642.36,-0.20938
1642.37,-0.2092
1642.38,-0.20893
1642.39,-0.2089
1642.4,-0.20918
1642.41,-0.20878
1642.42,-0.20862
1642.43,-0.20898
1642.44,-0.2078
1642.45,-0.20827
1642.46,-0.20797
1642.47,-0.20834
1642.48,-0.20715
1642.49,-0.20912
1642.5,-0.2084
1642.51,-0.2087
1642.52,-0.20871
1642.53,-0.20896
1642.54,-0.20843
1642.55,-0.20858
1642.56,-0.20864
1642.57,-0.20851
1642.58,-0.20974
1642.59,-0.20935
1642.6,-0.21058
1642.61,-0.21098
1642.62,-0.21074
1642.63,-0.21021
1642.64,-0.21004
1642.65,-0.20987
1642.66,-0.20951
1642.67,-0.20892
1642.68,-0.20917
1642.69,-0.2101
1642.7,-0.21152
1642.71,-0.21252
1642.72,-0.2124
1642.73,-0.21291
1642.74,-0.22564
1642.75,-0.29925
1642.76,-0.49974
1642.77,-0.85987
1642.78,-1.43002
1642.79,-2.1124
1642.8,-2.89541
1642.81,-3.6083
1642.82,-4.21662
1642.83,-4.6316
1642.84,-4.84526
1642.85,-4.83967
1642.86,-4.59655
1642.87,-4.13218
1642.88,-3.48569
1642.89,-2.72605
1642.9,-2.00868
1642.91,-1.36615
1642.92,-0.89544
1642.93,-0.56947
1642.94,-0.3713
1642.95,-0.27199
1642.96,-0.2349
1642.97,-0.21928
1642.98,-0.21385
1642.99,-0.21192
1643,-0.21097
1643.01,-0.21049
1643.02,-0.2097
1643.03,-0.20932
1643.04,-0.20932
1643.05,-0.20972
1643.06,-0.2099
1643.07,-0.20988
1643.08,-0.20992
1643.09,-0.21021
1643.1,-0.21072
1643.11,-0.21092
1643.12,-0.21087
1643.13,-0.21111
1643.14,-0.21175
1643.15,-0.21168
1643.16,-0.21141
1643.17,-0.21204
1643.18,-0.21136
1643.19,-0.21151
1643.2,-0.21081
1643.21,-0.21034
1643.22,-0.21012
1643.23,-0.20998
1643.24,-0.20867
1643.25,-0.21111
1643.26,-0.20834
1643.27,-0.20883
1643.28,-0.2099
1643.29,-0.21004
1643.3,-0.2107
1643.31,-0.21084
1643.32,-0.21113
1643.33,-0.21142
1643.34,-0.21175
1643.35,-0.21178
1643.36,-0.21246
1643.37,-0.21308
1643.38,-0.21303
1643.39,-0.21209
1643.4,-0.21191
1643.41,-0.21198
1643.42,-0.21133
1643.43,-0.21048
1643.44,-0.20929
1643.45,-0.21006
1643.46,-0.20907
1643.47,-0.20911
1643.48,-0.20917
1643.49,-0.20868
1643.5,-0.20882
1643.51,-0.2093
1643.52,-0.20926
1643.53,-0.20898
1643.54,-0.20924
1643.55,-0.20935
1643.56,-0.20948
1643.57,-0.20938
1643.58,-0.20974
1643.59,-0.21044
1643.6,-0.21125
1643.61,-0.21072
1643.62,-0.21226
1643.63,-0.21204
1643.64,-0.21323
1643.65,-0.21269
1643.66,-0.21238
1643.67,-0.21227
1643.68,-0.21177
1643.69,-0.21135
1643.7,-0.21133
1643.71,-0.21155
1643.72,-0.21204
1643.73,-0.21262
1643.74,-0.21344
1643.75,-0.21378
1643.76,-0.21367
1643.77,-0.21386
1643.78,-0.2141
1643.79,-0.21283
1643.8,-0.2127
1643.81,-0.21191
1643.82,-0.21118
1643.83,-0.21096
1643.84,-0.21039
1643.85,-0.20993
1643.86,-0.20949
1643.87,-0.20995
1643.88,-0.2095
1643.89,-0.20887
1643.9,-0.20869
1643.91,-0.20873
1643.92,-0.20883
1643.93,-0.20935
1643.94,-0.20907
1643.95,-0.21001
1643.96,-0.21029
1643.97,-0.21058
1643.98,-0.21146
1643.99,-0.21136
1644,-0.21217
1644.01,-0.21266
1644.02,-0.21315
1644.03,-0.21404
1644.04,-0.21412
1644.05,-0.2147
1644.06,-0.21466
1644.07,-0.21499
1644.08,-0.21543
1644.09,-0.21508
1644.1,-0.21502
1644.11,-0.21429
1644.12,-0.21402
1644.13,-0.21251
1644.14,-0.21116
1644.15,-0.21102
1644.16,-0.21037
1644.17,-0.20971
1644.18,-0.20911
1644.19,-0.20925
1644.2,-0.20905
1644.21,-0.2092
1644.22,-0.20858
1644.23,-0.20805
1644.24,-0.20905
1644.25,-0.20818
1644.26,-0.20949
1644.27,-0.20818
1644.28,-0.20887
1644.29,-0.20901
1644.3,-0.20955
1644.31,-0.2096
1644.32,-0.21042
1644.33,-0.21046
1644.34,-0.21167
1644.35,-0.21238
1644.36,-0.21375
1644.37,-0.21454
1644.38,-0.21549
1644.39,-0.2162
1644.4,-0.21554
1644.41,-0.21584
1644.42,-0.21476
1644.43,-0.21456
1644.44,-0.21261
1644.45,-0.21209
1644.46,-0.21085
1644.47,-0.2098
1644.48,-0.20939
1644.49,-0.20937
1644.5,-0.20894
1644.51,-0.20974
1644.52,-0.20913
1644.53,-0.20906
1644.54,-0.20929
1644.55,-0.20894
1644.56,-0.20956
1644.57,-0.21107
1644.58,-0.2098
1644.59,-0.21191
1644.6,-0.2118
1644.61,-0.2141
1644.62,-0.21402
1644.63,-0.215
1644.64,-0.21465
1644.65,-0.2147
1644.66,-0.21336
1644.67,-0.21221
1644.68,-0.21212
1644.69,-0.21123
1644.7,-0.20999
1644.71,-0.20983
1644.72,-0.20974
1644.73,-0.20887
1644.74,-0.21052
1644.75,-0.20975
1644.76,-0.20988
1644.77,-0.21034
1644.78,-0.21064
1644.79,-0.21027
1644.8,-0.211
1644.81,-0.21207
1644.82,-0.21206
1644.83,-0.21256
1644.84,-0.21239
1644.85,-0.21266
1644.86,-0.21174
1644.87,-0.21252
1644.88,-0.21174
1644.89,-0.21216
1644.9,-0.21218
1644.91,-0.21147
1644.92,-0.2121
1644.93,-0.21233
1644.94,-0.21232
1644.95,-0.21248
1644.96,-0.21249
1644.97,-0.21202
1644.98,-0.21145
1644.99,-0.21125
1645,-0.21068
1645.01,-0.21078
1645.02,-0.21063
1645.03,-0.21038
1645.04,-0.21023
1645.05,-0.21112
1645.06,-0.20985
1645.07,-0.2123
1645.08,-0.21043
1645.09,-0.2109
1645.1,-0.2103
1645.11,-0.21081
1645.12,-0.21026
1645.13,-0.21051
1645.14,-0.21008
1645.15,-0.21013
1645.16,-0.20962
1645.17,-0.20956
1645.18,-0.20945
1645.19,-0.20943
1645.2,-0.20939
1645.21,-0.21039
1645.22,-0.21036
1645.23,-0.21152
1645.24,-0.21084
1645.25,-0.21141
1645.26,-0.21075
1645.27,-0.21043
1645.28,-0.21075
1645.29,-0.21132
1645.3,-0.21173
1645.31,-0.21188
1645.32,-0.21326
1645.33,-0.21495
1645.34,-0.21532
1645.35,-0.21422
1645.36,-0.2131
1645.37,-0.24732
1645.38,-0.37921
1645.39,-0.71761
1645.4,-1.31632
1645.41,-2.10997
1645.42,-3.01287
1645.43,-4.00838
1645.44,-4.87729
1645.45,-5.58432
1645.46,-6.09187
1645.47,-6.33582
1645.48,-6.3179
1645.49,-6.031
1645.5,-5.47725
1645.51,-4.71596
1645.52,-3.84266
1645.53,-2.9082
1645.54,-2.05027
1645.55,-1.32455
1645.56,-0.8273
1645.57,-0.50227
1645.58,-0.33353
1645.59,-0.25658
1645.6,-0.22888
1645.61,-0.21895
1645.62,-0.21664
1645.63,-0.21581
1645.64,-0.21404
1645.65,-0.21368
1645.66,-0.2119
1645.67,-0.21186
1645.68,-0.2109
1645.69,-0.21079
1645.7,-0.21063
1645.71,-0.2104
1645.72,-0.2103
1645.73,-0.21052
1645.74,-0.21022
1645.75,-0.21226
1645.76,-0.21051
1645.77,-0.21045
1645.78,-0.2107
1645.79,-0.21125
1645.8,-0.211
1645.81,-0.21224
1645.82,-0.21199
1645.83,-0.21236
1645.84,-0.2123
1645.85,-0.21231
1645.86,-0.21299
1645.87,-0.2131
1645.88,-0.21314
1645.89,-0.2124
1645.9,-0.21149
1645.91,-0.2115
1645.92,-0.21066
1645.93,-0.21018
1645.94,-0.21111
1645.95,-0.21055
1645.96,-0.21067
1645.97,-0.21088
1645.98,-0.21092
1645.99,-0.21123
1646,-0.21214
1646.01,-0.21143
1646.02,-0.21216
1646.03,-0.21269
1646.04,-0.21328
1646.05,-0.21406
1646.06,-0.21469
1646.07,-0.21492
1646.08,-0.21498
1646.09,-0.21518
1646.1,-0.21471
1646.11,-0.21424
1646.12,-0.21355
1646.13,-0.21231
1646.14,-0.21198
1646.15,-0.21108
1646.16,-0.2107
1646.17,-0.21059
1646.18,-0.21096
1646.19,-0.21096
1646.2,-0.21103
1646.21,-0.2109
1646.22,-0.21067
1646.23,-0.21096
1646.24,-0.21036
1646.25,-0.21068
1646.26,-0.21051
1646.27,-0.21109
1646.28,-0.21209
1646.29,-0.21232
1646.3,-0.21248
1646.31,-0.2138
1646.32,-0.21357
1646.33,-0.21527
1646.34,-0.21474
1646.35,-0.21455
1646.36,-0.21435
1646.37,-0.21414
1646.38,-0.21416
1646.39,-0.21365
1646.4,-0.21368
1646.41,-0.21405
1646.42,-0.2145
1646.43,-0.21494
1646.44,-0.21511
1646.45,-0.21587
1646.46,-0.21652
1646.47,-0.21637
1646.48,-0.21669
1646.49,-0.2165
1646.5,-0.2158
1646.51,-0.21553
1646.52,-0.21448
1646.53,-0.21374
1646.54,-0.21363
1646.55,-0.21266
1646.56,-0.21274
1646.57,-0.21154
1646.58,-0.21173
1646.59,-0.21089
1646.6,-0.21104
1646.61,-0.21086
1646.62,-0.21097
1646.63,-0.21103
1646.64,-0.21103
1646.65,-0.21149
1646.66,-0.21142
1646.67,-0.21181
1646.68,-0.21201
1646.69,-0.21242
1646.7,-0.21367
1646.71,-0.21359
1646.72,-0.21478
1646.73,-0.21613
1646.74,-0.21627
1646.75,-0.21699
1646.76,-0.21735
1646.77,-0.21824
1646.78,-0.21839
1646.79,-0.21756
1646.8,-0.21773
1646.81,-0.2173
1646.82,-0.21631
1646.83,-0.21598
1646.84,-0.21515
1646.85,-0.21397
1646.86,-0.21299
1646.87,-0.21263
1646.88,-0.2117
1646.89,-0.21125
1646.9,-0.21106
1646.91,-0.21048
1646.92,-0.20969
1646.93,-0.21012
1646.94,-0.20994
1646.95,-0.20981
1646.96,-0.21005
1646.97,-0.21022
1646.98,-0.21017
1646.99,-0.21052
1647,-0.21067
1647.01,-0.2112
1647.02,-0.21097
1647.03,-0.21157
1647.04,-0.21222
1647.05,-0.21334
1647.06,-0.21447
1647.07,-0.21586
1647.08,-0.217
1647.09,-0.21803
1647.1,-0.21873
1647.11,-0.21825
1647.12,-0.21804
1647.13,-0.21744
1647.14,-0.21582
1647.15,-0.21516
1647.16,-0.21357
1647.17,-0.21299
1647.18,-0.21254
1647.19,-0.2118
1647.2,-0.2117
1647.21,-0.21185
1647.22,-0.21218
1647.23,-0.21185
1647.24,-0.21124
1647.25,-0.21177
1647.26,-0.21132
1647.27,-0.21134
1647.28,-0.21196
1647.29,-0.21281
1647.3,-0.21415
1647.31,-0.21531
1647.32,-0.21618
1647.33,-0.21673
1647.34,-0.21776
1647.35,-0.21701
1647.36,-0.21607
1647.37,-0.21569
1647.38,-0.21486
1647.39,-0.21359
1647.4,-0.21376
1647.41,-0.21244
1647.42,-0.21228
1647.43,-0.21241
1647.44,-0.21249
1647.45,-0.21214
1647.46,-0.21213
1647.47,-0.21196
1647.48,-0.21192
1647.49,-0.21242
1647.5,-0.21277
1647.51,-0.21355
1647.52,-0.21411
1647.53,-0.21471
1647.54,-0.21544
1647.55,-0.21528
1647.56,-0.21555
1647.57,-0.21479
1647.58,-0.21461
1647.59,-0.21365
1647.6,-0.21363
1647.61,-0.21426
1647.62,-0.21382
1647.63,-0.21468
1647.64,-0.21469
1647.65,-0.2151
1647.66,-0.2155
1647.67,-0.21447
1647.68,-0.21424
1647.69,-0.21314
1647.7,-0.21263
1647.71,-0.21191
1647.72,-0.21155
1647.73,-0.21381
1647.74,-0.21164
1647.75,-0.21226
1647.76,-0.21298
1647.77,-0.21322
1647.78,-0.21286
1647.79,-0.21316
1647.8,-0.21397
1647.81,-0.21363
1647.82,-0.21367
1647.83,-0.21311
1647.84,-0.21266
1647.85,-0.21319
1647.86,-0.21292
1647.87,-0.21269
1647.88,-0.21267
1647.89,-0.21271
1647.9,-0.21262
1647.91,-0.21269
1647.92,-0.21295
1647.93,-0.21315
1647.94,-0.2128
1647.95,-0.21267
1647.96,-0.21194
1647.97,-0.21236
1647.98,-0.21214
1647.99,-0.21262
1648,-0.2137
1648.01,-0.21495
1648.02,-0.21473
1648.03,-0.21702
1648.04,-0.2159
1648.05,-0.21856
1648.06,-0.23509
1648.07,-0.29554
1648.08,-0.47019
1648.09,-0.82713
1648.1,-1.39485
1648.11,-2.15117
1648.12,-2.98168
1648.13,-3.76992
1648.14,-4.39993
1648.15,-4.84455
1648.16,-5.08941
1648.17,-5.09992
1648.18,-4.82398
1648.19,-4.36034
1648.2,-3.77512
1648.21,-3.08102
1648.22,-2.32896
1648.23,-1.63665
1648.24,-1.05365
1648.25,-0.643
1648.26,-0.41095
1648.27,-0.28931
1648.28,-0.24232
1648.29,-0.22488
1648.3,-0.21765
1648.31,-0.21638
1648.32,-0.21575
1648.33,-0.21579
1648.34,-0.21577
1648.35,-0.21596
1648.36,-0.21532
1648.37,-0.21503
1648.38,-0.21512
1648.39,-0.21407
1648.4,-0.21401
1648.41,-0.21305
1648.42,-0.21358
1648.43,-0.21379
1648.44,-0.21405
1648.45,-0.21352
1648.46,-0.21335
1648.47,-0.21311
1648.48,-0.21267
1648.49,-0.21319
1648.5,-0.21132
1648.51,-0.21269
1648.52,-0.21279
1648.53,-0.21237
1648.54,-0.21294
1648.55,-0.21348
1648.56,-0.21343
1648.57,-0.21385
1648.58,-0.21442
1648.59,-0.21384
1648.6,-0.21423
1648.61,-0.21398
1648.62,-0.21446
1648.63,-0.21492
1648.64,-0.21491
1648.65,-0.2144
1648.66,-0.21423
1648.67,-0.2136
1648.68,-0.21357
1648.69,-0.21325
1648.7,-0.21303
1648.71,-0.21233
1648.72,-0.21258
1648.73,-0.21292
1648.74,-0.21334
1648.75,-0.21196
1648.76,-0.21346
1648.77,-0.21419
1648.78,-0.21447
1648.79,-0.21487
1648.8,-0.21561
1648.81,-0.21562
1648.82,-0.21619
1648.83,-0.21644
1648.84,-0.21631
1648.85,-0.21591
1648.86,-0.21638
1648.87,-0.21572
1648.88,-0.21555
1648.89,-0.21512
1648.9,-0.21405
1648.91,-0.21399
1648.92,-0.21286
1648.93,-0.21243
1648.94,-0.21213
1648.95,-0.21204
1648.96,-0.21244
1648.97,-0.21261
1648.98,-0.21221
1648.99,-0.21271
1649,-0.21273
1649.01,-0.21271
1649.02,-0.21279
1649.03,-0.21303
1649.04,-0.21308
1649.05,-0.21285
1649.06,-0.21364
1649.07,-0.21426
1649.08,-0.21468
1649.09,-0.21512
1649.1,-0.21549
1649.11,-0.21587
1649.12,-0.21607
1649.13,-0.21596
1649.14,-0.21521
1649.15,-0.21537
1649.16,-0.21459
1649.17,-0.21447
1649.18,-0.21502
1649.19,-0.21488
1649.2,-0.21557
1649.21,-0.21591
1649.22,-0.21729
1649.23,-0.21734
1649.24,-0.2186
1649.25,-0.21804
1649.26,-0.21763
1649.27,-0.21718
1649.28,-0.2163
1649.29,-0.21575
1649.3,-0.21475
1649.31,-0.21464
1649.32,-0.21387
1649.33,-0.21404
1649.34,-0.21342
1649.35,-0.21361
1649.36,-0.21286
1649.37,-0.21248
1649.38,-0.21226
1649.39,-0.21249
1649.4,-0.21231
1649.41,-0.21253
1649.42,-0.21296
1649.43,-0.21294
1649.44,-0.21404
1649.45,-0.21453
1649.46,-0.21453
1649.47,-0.21541
1649.48,-0.21547
1649.49,-0.21696
1649.5,-0.21632
1649.51,-0.21753
1649.52,-0.21827
1649.53,-0.21829
1649.54,-0.21939
1649.55,-0.21912
1649.56,-0.21967
1649.57,-0.21986
1649.58,-0.21911
1649.59,-0.21886
1649.6,-0.21767
1649.61,-0.21685
1649.62,-0.21587
1649.63,-0.21478
1649.64,-0.21405
1649.65,-0.21394
1649.66,-0.21352
1649.67,-0.21332
1649.68,-0.21309
1649.69,-0.2135
1649.7,-0.21232
1649.71,-0.21291
1649.72,-0.21239
1649.73,-0.21212
1649.74,-0.21273
1649.75,-0.21238
1649.76,-0.21239
1649.77,-0.21298
1649.78,-0.21291
1649.79,-0.21371
1649.8,-0.21359
1649.81,-0.21453
1649.82,-0.21514
1649.83,-0.21591
1649.84,-0.21665
1649.85,-0.21776
1649.86,-0.21895
1649.87,-0.21923
1649.88,-0.21893
1649.89,-0.21963
1649.9,-0.21908
1649.91,-0.21799
1649.92,-0.21671
1649.93,-0.21531
1649.94,-0.21465
1649.95,-0.21342
1649.96,-0.21343
1649.97,-0.21292
1649.98,-0.21259
1649.99,-0.21385
1650,-0.2124
1650.01,-0.2134
1650.02,-0.21383
1650.03,-0.21307
1650.04,-0.21349
1650.05,-0.21341
1650.06,-0.21431
1650.07,-0.21498
1650.08,-0.21599
1650.09,-0.21704
1650.1,-0.21776
1650.11,-0.21803
1650.12,-0.21974
1650.13,-0.2181
1650.14,-0.21707
1650.15,-0.21597
1650.16,-0.21506
1650.17,-0.21414
1650.18,-0.21281
1650.19,-0.21292
1650.2,-0.21312
1650.21,-0.2126
1650.22,-0.2121
1650.23,-0.21403
1650.24,-0.21364
1650.25,-0.21305
1650.26,-0.21374
1650.27,-0.214
1650.28,-0.21462
1650.29,-0.21469
1650.3,-0.21535
1650.31,-0.21579
1650.32,-0.21649
1650.33,-0.21681
1650.34,-0.21647
1650.35,-0.21655
1650.36,-0.21578
1650.37,-0.21515
1650.38,-0.21485
1650.39,-0.21464
1650.4,-0.21471
1650.41,-0.21579
1650.42,-0.21555
1650.43,-0.21548
1650.44,-0.21547
1650.45,-0.21493
1650.46,-0.21454
1650.47,-0.21436
1650.48,-0.21314
1650.49,-0.21274
1650.5,-0.21293
1650.51,-0.21225
1650.52,-0.21274
1650.53,-0.21244
1650.54,-0.2133
1650.55,-0.21257
1650.56,-0.21343
1650.57,-0.21317
1650.58,-0.21376
1650.59,-0.21367
1650.6,-0.21318
1650.61,-0.21312
1650.62,-0.21402
1650.63,-0.21465
1650.64,-0.21395
1650.65,-0.21508
1650.66,-0.21424
1650.67,-0.21398
1650.68,-0.21398
1650.69,-0.21416
1650.7,-0.2143
1650.71,-0.21423
1650.72,-0.21484
1650.73,-0.21589
1650.74,-0.21655
1650.75,-0.21702
1650.76,-0.21571
1650.77,-0.23181
1650.78,-0.3074
1650.79,-0.50651
1650.8,-0.9161
1650.81,-1.51762
1650.82,-2.27306
1650.83,-3.13559
1650.84,-3.95086
1650.85,-4.65545
1650.86,-5.16251
1650.87,-5.44333
1650.88,-5.47203
1650.89,-5.25348
1650.9,-4.80157
1650.91,-4.16068
1650.92,-3.41064
1650.93,-2.62999
1650.94,-1.87502
1650.95,-1.22717
1650.96,-0.75871
1650.97,-0.47432
1650.98,-0.3247
1650.99,-0.25661
1651,-0.23026
1651.01,-0.22021
1651.02,-0.21692
1651.03,-0.21764
1651.04,-0.21589
1651.05,-0.21474
1651.06,-0.21473
1651.07,-0.21341
1651.08,-0.2139
1651.09,-0.2141
1651.1,-0.21337
1651.11,-0.2134
1651.12,-0.2142
1651.13,-0.21469
1651.14,-0.21567
1651.15,-0.21513
1651.16,-0.2152
1651.17,-0.21481
1651.18,-0.21451
1651.19,-0.21467
1651.2,-0.2145
1651.21,-0.21484
1651.22,-0.21495
1651.23,-0.21531
1651.24,-0.2145
1651.25,-0.21492
1651.26,-0.21457
1651.27,-0.21465
1651.28,-0.21395
1651.29,-0.21357
1651.3,-0.21354
1651.31,-0.2133
1651.32,-0.21346
1651.33,-0.21381
1651.34,-0.21348
1651.35,-0.214
1651.36,-0.21464
1651.37,-0.21383
1651.38,-0.21411
1651.39,-0.21404
1651.4,-0.21374
1651.41,-0.21419
1651.42,-0.21401
1651.43,-0.21452
1651.44,-0.21466
1651.45,-0.21495
1651.46,-0.2153
1651.47,-0.21509
1651.48,-0.21553
1651.49,-0.21468
1651.5,-0.21392
1651.51,-0.21396
1651.52,-0.21392
1651.53,-0.21394
1651.54,-0.21397
1651.55,-0.21328
1651.56,-0.21374
1651.57,-0.21262
1651.58,-0.21477
1651.59,-0.21392
1651.6,-0.21417
1651.61,-0.21389
1651.62,-0.21447
1651.63,-0.21413
1651.64,-0.21509
1651.65,-0.21477
1651.66,-0.21557
1651.67,-0.21546
1651.68,-0.21629
1651.69,-0.21529
1651.7,-0.21567
1651.71,-0.21564
1651.72,-0.21469
1651.73,-0.21459
1651.74,-0.21385
1651.75,-0.21394
1651.76,-0.21385
1651.77,-0.21382
1651.78,-0.21385
1651.79,-0.2141
1651.8,-0.21459
1651.81,-0.2142
1651.82,-0.21381
1651.83,-0.21418
1651.84,-0.21362
1651.85,-0.21362
1651.86,-0.21401
1651.87,-0.21413
1651.88,-0.21401
1651.89,-0.2146
1651.9,-0.21479
1651.91,-0.21552
1651.92,-0.21533
1651.93,-0.21554
1651.94,-0.216
1651.95,-0.21532
1651.96,-0.21537
1651.97,-0.21563
1651.98,-0.21473
1651.99,-0.21632
1652,-0.21527
1652.01,-0.2157
1652.02,-0.21538
1652.03,-0.21648
1652.04,-0.21582
1652.05,-0.21674
1652.06,-0.21667
1652.07,-0.21634
1652.08,-0.21645
1652.09,-0.2167
1652.1,-0.21648
1652.11,-0.21806
1652.12,-0.216
1652.13,-0.21621
1652.14,-0.21589
1652.15,-0.21515
1652.16,-0.21523
1652.17,-0.21466
1652.18,-0.21477
1652.19,-0.2143
1652.2,-0.21402
1652.21,-0.21416
1652.22,-0.21471
1652.23,-0.21483
1652.24,-0.21424
1652.25,-0.21551
1652.26,-0.21367
1652.27,-0.21493
1652.28,-0.21481
1652.29,-0.21448
1652.3,-0.21507
1652.31,-0.21545
1652.32,-0.21551
1652.33,-0.21613
1652.34,-0.21678
1652.35,-0.21694
1652.36,-0.21741
1652.37,-0.21829
1652.38,-0.21826
1652.39,-0.21773
1652.4,-0.21759
1652.41,-0.21702
1652.42,-0.21766
1652.43,-0.21729
1652.44,-0.21688
1652.45,-0.21737
1652.46,-0.21587
1652.47,-0.21728
1652.48,-0.21525
1652.49,-0.21556
1652.5,-0.21533
1652.51,-0.21443
1652.52,-0.21402
1652.53,-0.21455
1652.54,-0.21465
1652.55,-0.21436
1652.56,-0.21438
1652.57,-0.2151
1652.58,-0.21443
1652.59,-0.2148
1652.6,-0.2147
1652.61,-0.21456
1652.62,-0.21444
1652.63,-0.21365
1652.64,-0.21549
1652.65,-0.21425
1652.66,-0.21546
1652.67,-0.21588
1652.68,-0.21663
1652.69,-0.21722
1652.7,-0.21753
1652.71,-0.21732
1652.72,-0.21743
1652.73,-0.21642
1652.74,-0.21757
1652.75,-0.21528
1652.76,-0.21584
1652.77,-0.2153
1652.78,-0.21491
1652.79,-0.21509
1652.8,-0.215
1652.81,-0.21521
1652.82,-0.21438
1652.83,-0.21388
1652.84,-0.2144
1652.85,-0.21387
1652.86,-0.21433
1652.87,-0.21402
1652.88,-0.21405
1652.89,-0.21433
1652.9,-0.21449
1652.91,-0.21535
1652.92,-0.21534
1652.93,-0.21611
1652.94,-0.2162
1652.95,-0.21642
1652.96,-0.2158
1652.97,-0.2158
1652.98,-0.21536
1652.99,-0.21581
1653,-0.21469
1653.01,-0.2154
1653.02,-0.21431
1653.03,-0.21472
1653.04,-0.21416
1653.05,-0.21432
1653.06,-0.21356
1653.07,-0.21413
1653.08,-0.21374
1653.09,-0.21376
1653.1,-0.21458
1653.11,-0.21376
1653.12,-0.2149
1653.13,-0.21565
1653.14,-0.21547
1653.15,-0.21566
1653.16,-0.21585
1653.17,-0.21558
1653.18,-0.21517
1653.19,-0.21538
1653.2,-0.21405
1653.21,-0.21508
1653.22,-0.21454
1653.23,-0.21452
1653.24,-0.21518
1653.25,-0.21543
1653.26,-0.21605
1653.27,-0.21569
1653.28,-0.21575
1653.29,-0.2156
1653.3,-0.21519
1653.31,-0.21478
1653.32,-0.21504
1653.33,-0.21484
1653.34,-0.21437
1653.35,-0.21494
1653.36,-0.21478
1653.37,-0.21517
1653.38,-0.21517
1653.39,-0.21464
1653.4,-0.21544
1653.41,-0.21595
1653.42,-0.21582
1653.43,-0.21636
1653.44,-0.21473
1653.45,-0.216
1653.46,-0.2153
1653.47,-0.21627
1653.48,-0.21637
1653.49,-0.21686
1653.5,-0.21783
1653.51,-0.21994
1653.52,-0.21959
1653.53,-0.21947
1653.54,-0.22712
1653.55,-0.27652
1653.56,-0.43046
1653.57,-0.74065
1653.58,-1.20508
1653.59,-1.85898
1653.6,-2.61176
1653.61,-3.33585
1653.62,-4.06342
1653.63,-4.60461
1653.64,-4.93275
1653.65,-5.03429
1653.66,-4.87977
1653.67,-4.49457
1653.68,-3.92463
1653.69,-3.25629
1653.7,-2.52215
1653.71,-1.82791
1653.72,-1.24211
1653.73,-0.80392
1653.74,-0.48976
1653.75,-0.3356
1653.76,-0.25997
1653.77,-0.23134
1653.78,-0.22073
1653.79,-0.21871
1653.8,-0.21728
1653.81,-0.21672
1653.82,-0.21645
1653.83,-0.21565
1653.84,-0.21574
1653.85,-0.21516
1653.86,-0.21504
1653.87,-0.21512
1653.88,-0.21526
1653.89,-0.21427
1653.9,-0.2169
1653.91,-0.21496
1653.92,-0.21579
1653.93,-0.21563
1653.94,-0.21541
1653.95,-0.21505
1653.96,-0.21493
1653.97,-0.2149
1653.98,-0.21521
1653.99,-0.21536
1654,-0.21546
1654.01,-0.21572
1654.02,-0.21592
1654.03,-0.21605
1654.04,-0.21626
1654.05,-0.21611
1654.06,-0.2154
1654.07,-0.21579
1654.08,-0.21474
1654.09,-0.21545
1654.1,-0.21488
1654.11,-0.21532
1654.12,-0.21525
1654.13,-0.21557
1654.14,-0.21527
1654.15,-0.21531
1654.16,-0.21541
1654.17,-0.21491
1654.18,-0.21518
1654.19,-0.21465
1654.2,-0.21499
1654.21,-0.21489
1654.22,-0.21498
1654.23,-0.21556
1654.24,-0.2143
1654.25,-0.21601
1654.26,-0.2155
1654.27,-0.21577
1654.28,-0.2159
1654.29,-0.21583
1654.3,-0.2155
1654.31,-0.2153
1654.32,-0.21504
1654.33,-0.21557
1654.34,-0.21554
1654.35,-0.21474
1654.36,-0.21595
1654.37,-0.21566
1654.38,-0.21561
1654.39,-0.21525
1654.4,-0.21516
1654.41,-0.21495
1654.42,-0.21486
1654.43,-0.21454
1654.44,-0.21475
1654.45,-0.21531
1654.46,-0.21559
1654.47,-0.21589
1654.48,-0.21528
1654.49,-0.21609
1654.5,-0.21629
1654.51,-0.21549
1654.52,-0.21561
1654.53,-0.21595
1654.54,-0.21569
1654.55,-0.21556
1654.56,-0.21578
1654.57,-0.21506
1654.58,-0.21581
1654.59,-0.2156
1654.6,-0.21543
1654.61,-0.21555
1654.62,-0.2149
1654.63,-0.21515
1654.64,-0.21498
1654.65,-0.21487
1654.66,-0.21448
1654.67,-0.21494
1654.68,-0.21549
1654.69,-0.21497
1654.7,-0.21562
1654.71,-0.21533
1654.72,-0.2158
1654.73,-0.21635
1654.74,-0.21531
1654.75,-0.21505
1654.76,-0.2156
1654.77,-0.21576
1654.78,-0.21607
1654.79,-0.21591
1654.8,-0.2161
1654.81,-0.21637
1654.82,-0.21646
1654.83,-0.2162
1654.84,-0.21654
1654.85,-0.21619
1654.86,-0.21642
1654.87,-0.21582
1654.88,-0.21572
1654.89,-0.2163
1654.9,-0.21621
1654.91,-0.21685
1654.92,-0.21705
1654.93,-0.21705
1654.94,-0.21702
1654.95,-0.21662
1654.96,-0.21664
1654.97,-0.21629
1654.98,-0.21619
1654.99,-0.2153
1655,-0.21632
1655.01,-0.21533
1655.02,-0.21598
1655.03,-0.2164
1655.04,-0.2161
1655.05,-0.21627
1655.06,-0.2161
1655.07,-0.21577
1655.08,-0.21555
1655.09,-0.21588
1655.1,-0.21545
1655.11,-0.21555
1655.12,-0.21573
1655.13,-0.21584
1655.14,-0.2159
1655.15,-0.21626
1655.16,-0.21584
1655.17,-0.21648
1655.18,-0.21569
1655.19,-0.21666
1655.2,-0.21555
1655.21,-0.2168
1655.22,-0.21641
1655.23,-0.21664
1655.24,-0.2171
1655.25,-0.21726
1655.26,-0.21746
1655.27,-0.21712
1655.28,-0.2175
1655.29,-0.21693
1655.3,-0.2165
1655.31,-0.21578
1655.32,-0.2164
1655.33,-0.21581
1655.34,-0.21615
1655.35,-0.21557
1655.36,-0.21598
1655.37,-0.2162
1655.38,-0.2162
1655.39,-0.21595
1655.4,-0.21551
1655.41,-0.21669
1655.42,-0.21532
1655.43,-0.21512
1655.44,-0.21522
1655.45,-0.21592
1655.46,-0.21564
1655.47,-0.21549
1655.48,-0.21636
1655.49,-0.21577
1655.5,-0.21662
1655.51,-0.2163
1655.52,-0.21624
1655.53,-0.21672
1655.54,-0.21639
1655.55,-0.21691
1655.56,-0.21592
1655.57,-0.21814
1655.58,-0.21771
1655.59,-0.21723
1655.6,-0.21676
1655.61,-0.2175
1655.62,-0.21657
1655.63,-0.21632
1655.64,-0.21614
1655.65,-0.21643
1655.66,-0.21539
1655.67,-0.21577
1655.68,-0.21613
1655.69,-0.21607
1655.7,-0.21668
1655.71,-0.21656
1655.72,-0.21694
1655.73,-0.21603
1655.74,-0.21657
1655.75,-0.21626
1655.76,-0.21657
1655.77,-0.21655
1655.78,-0.2169
1655.79,-0.21693
1655.8,-0.2174
1655.81,-0.21703
1655.82,-0.21785
1655.83,-0.21763
1655.84,-0.2171
1655.85,-0.21689
1655.86,-0.2168
1655.87,-0.21586
1655.88,-0.21594
1655.89,-0.2159
1655.9,-0.21605
1655.91,-0.21603
1655.92,-0.21635
1655.93,-0.21639
1655.94,-0.21628
1655.95,-0.21679
1655.96,-0.2163
1655.97,-0.21585
1655.98,-0.21658
1655.99,-0.21625
1656,-0.21612
1656.01,-0.21722
1656.02,-0.2172
1656.03,-0.21728
1656.04,-0.2169
1656.05,-0.21734
1656.06,-0.21721
1656.07,-0.21729
1656.08,-0.21701
1656.09,-0.21705
1656.1,-0.2162
1656.11,-0.21632
1656.12,-0.21665
1656.13,-0.21735
1656.14,-0.2166
1656.15,-0.21677
1656.16,-0.21726
1656.17,-0.21703
1656.18,-0.21655
1656.19,-0.2162
1656.2,-0.21597
1656.21,-0.21576
1656.22,-0.21591
1656.23,-0.21602
1656.24,-0.21646
1656.25,-0.21667
1656.26,-0.21745
1656.27,-0.21721
1656.28,-0.21662
1656.29,-0.21726
1656.3,-0.21637
1656.31,-0.21644
1656.32,-0.21663
1656.33,-0.21676
1656.34,-0.21722
1656.35,-0.21831
1656.36,-0.21905
1656.37,-0.21936
1656.38,-0.218
1656.39,-0.22433
1656.4,-0.25694
1656.41,-0.34093
1656.42,-0.50613
1656.43,-0.75357
1656.44,-1.09227
1656.45,-1.4614
1656.46,-1.82654
1656.47,-2.14643
1656.48,-2.37361
1656.49,-2.46082
1656.5,-2.42644
1656.51,-2.26113
1656.52,-1.9695
1656.53,-1.59842
1656.54,-1.21691
1656.55,-0.88461
1656.56,-0.62094
1656.57,-0.43992
1656.58,-0.31779
1656.59,-0.25929
1656.6,-0.23428
1656.61,-0.22384
1656.62,-0.21922
1656.63,-0.21775
1656.64,-0.21763
1656.65,-0.21736
1656.66,-0.21709
1656.67,-0.2174
1656.68,-0.21712
1656.69,-0.21726
1656.7,-0.21697
1656.71,-0.21717
1656.72,-0.21701
1656.73,-0.21802
1656.74,-0.21678
1656.75,-0.21672
1656.76,-0.21714
1656.77,-0.21648
1656.78,-0.21679
1656.79,-0.21707
1656.8,-0.21714
1656.81,-0.21686
1656.82,-0.21737
1656.83,-0.21724
1656.84,-0.21727
1656.85,-0.21707
1656.86,-0.21716
1656.87,-0.21665
1656.88,-0.21727
1656.89,-0.21662
1656.9,-0.21687
1656.91,-0.21748
1656.92,-0.21721
1656.93,-0.21764
1656.94,-0.21823
1656.95,-0.21753
1656.96,-0.21791
1656.97,-0.21749
1656.98,-0.21757
1656.99,-0.21706
1657,-0.21695
1657.01,-0.21715
1657.02,-0.2172
1657.03,-0.2174
1657.04,-0.21799
1657.05,-0.21751
1657.06,-0.21745
1657.07,-0.21778
1657.08,-0.21727
1657.09,-0.21697
1657.1,-0.21699
1657.11,-0.2168
1657.12,-0.21707
1657.13,-0.21719
1657.14,-0.21684
1657.15,-0.21747
1657.16,-0.21764
1657.17,-0.21792
1657.18,-0.21771
1657.19,-0.21755
1657.2,-0.21761
1657.21,-0.21715
1657.22,-0.2178
1657.23,-0.21725
1657.24,-0.21793
1657.25,-0.21764
1657.26,-0.21743
1657.27,-0.2181
1657.28,-0.21755
1657.29,-0.21786
1657.3,-0.21788
1657.31,-0.21728
1657.32,-0.21683
1657.33,-0.21712
1657.34,-0.21688
1657.35,-0.2171
1657.36,-0.21689
1657.37,-0.21752
1657.38,-0.21818
1657.39,-0.21804
1657.4,-0.21791
1657.41,-0.21784
1657.42,-0.21815
1657.43,-0.21807
1657.44,-0.21779
1657.45,-0.21785
1657.46,-0.21791
1657.47,-0.21778
1657.48,-0.21764
1657.49,-0.2176
1657.5,-0.21751
1657.51,-0.2175
1657.52,-0.21719
1657.53,-0.21729
1657.54,-0.21694
1657.55,-0.21687
1657.56,-0.21618
1657.57,-0.2163
1657.58,-0.2168
1657.59,-0.21667
1657.6,-0.2168
1657.61,-0.2174
1657.62,-0.21691
1657.63,-0.21722
1657.64,-0.21665
1657.65,-0.21642
1657.66,-0.21657
1657.67,-0.21654
1657.68,-0.2172
1657.69,-0.21717
1657.7,-0.21716
1657.71,-0.21771
1657.72,-0.21795
1657.73,-0.21752
1657.74,-0.21772
1657.75,-0.21835
1657.76,-0.2176
1657.77,-0.21744
1657.78,-0.21738
1657.79,-0.21771
1657.8,-0.21737
1657.81,-0.21785
1657.82,-0.21858
1657.83,-0.21806
1657.84,-0.21856
1657.85,-0.21871
1657.86,-0.21855
1657.87,-0.21791
1657.88,-0.21791
1657.89,-0.21748
1657.9,-0.21743
1657.91,-0.21779
1657.92,-0.217
1657.93,-0.21773
1657.94,-0.21756
1657.95,-0.21741
1657.96,-0.21779
1657.97,-0.21676
1657.98,-0.217
1657.99,-0.21703
1658,-0.2169
1658.01,-0.2173
1658.02,-0.21728
1658.03,-0.2175
1658.04,-0.21666
1658.05,-0.218
1658.06,-0.21784
1658.07,-0.21823
1658.08,-0.21815
1658.09,-0.21761
1658.1,-0.21804
1658.11,-0.21789
1658.12,-0.21855
1658.13,-0.21809
1658.14,-0.21905
1658.15,-0.21894
1658.16,-0.21922
1658.17,-0.21949
1658.18,-0.21924
1658.19,-0.21894
1658.2,-0.21889
1658.21,-0.21849
1658.22,-0.21814
1658.23,-0.21858
1658.24,-0.21811
1658.25,-0.21746
1658.26,-0.21755
1658.27,-0.21826
1658.28,-0.21766
1658.29,-0.21803
1658.3,-0.21739
1658.31,-0.21742
1658.32,-0.21697
1658.33,-0.21665
1658.34,-0.21725
1658.35,-0.21695
1658.36,-0.21693
1658.37,-0.21784
1658.38,-0.21775
1658.39,-0.218
1658.4,-0.2172
1658.41,-0.21803
1658.42,-0.21767
1658.43,-0.21728
1658.44,-0.21762
1658.45,-0.21774
1658.46,-0.21829
1658.47,-0.21832
1658.48,-0.22014
1658.49,-0.21897
1658.5,-0.21929
1658.51,-0.21914
1658.52,-0.2188
1658.53,-0.21819
1658.54,-0.21822
1658.55,-0.2181
1658.56,-0.21715
1658.57,-0.21744
1658.58,-0.21708
1658.59,-0.21791
1658.6,-0.21782
1658.61,-0.21751
1658.62,-0.21762
1658.63,-0.2179
1658.64,-0.21728
1658.65,-0.21732
1658.66,-0.217
1658.67,-0.21739
1658.68,-0.21734
1658.69,-0.21733
1658.7,-0.21813
1658.71,-0.21799
1658.72,-0.21838
1658.73,-0.21859
1658.74,-0.21857
1658.75,-0.2183
1658.76,-0.21687
1658.77,-0.21814
1658.78,-0.21721
1658.79,-0.21735
1658.8,-0.21696
1658.81,-0.2169
1658.82,-0.21754
1658.83,-0.21731
1658.84,-0.21729
1658.85,-0.21697
1658.86,-0.21739
1658.87,-0.21713
1658.88,-0.21679
1658.89,-0.21713
1658.9,-0.21666
1658.91,-0.21714
1658.92,-0.2176
1658.93,-0.21849
1658.94,-0.21686
1658.95,-0.21881
1658.96,-0.21853
1658.97,-0.21765
1658.98,-0.21821
1658.99,-0.21748
1659,-0.21748
1659.01,-0.2177
1659.02,-0.21757
1659.03,-0.21778
1659.04,-0.21845
1659.05,-0.21785
1659.06,-0.21751
1659.07,-0.21956
1659.08,-0.21681
1659.09,-0.21803
1659.1,-0.21739
1659.11,-0.21706
1659.12,-0.21721
1659.13,-0.21684
1659.14,-0.21754
1659.15,-0.21713
1659.16,-0.21741
1659.17,-0.21717
1659.18,-0.21795
1659.19,-0.21766
1659.2,-0.21786
1659.21,-0.21801
1659.22,-0.21846
1659.23,-0.21764
1659.24,-0.21755
1659.25,-0.22543
1659.26,-0.24931
1659.27,-0.30395
1659.28,-0.40079
1659.29,-0.54438
1659.3,-0.71643
1659.31,-0.90062
1659.32,-1.07582
1659.33,-1.21247
1659.34,-1.27327
1659.35,-1.27461
1659.36,-1.21075
1659.37,-1.08404
1659.38,-0.9182
1659.39,-0.73487
1659.4,-0.56001
1659.41,-0.42385
1659.42,-0.32918
1659.43,-0.27457
1659.44,-0.24364
1659.45,-0.22775
1659.46,-0.22153
1659.47,-0.2183
1659.48,-0.21817
1659.49,-0.21812
1659.5,-0.21863
1659.51,-0.21884
1659.52,-0.21849
1659.53,-0.21802
1659.54,-0.21839
1659.55,-0.21804
1659.56,-0.21817
1659.57,-0.21693
1659.58,-0.21815
1659.59,-0.21791
1659.6,-0.21768
1659.61,-0.21896
1659.62,-0.21851
1659.63,-0.21878
1659.64,-0.21872
1659.65,-0.21751
1659.66,-0.21819
1659.67,-0.21771
1659.68,-0.21819
1659.69,-0.2183
1659.7,-0.2182
1659.71,-0.21847
1659.72,-0.21871
1659.73,-0.21839
1659.74,-0.2186
1659.75,-0.2187
1659.76,-0.21868
1659.77,-0.21788
1659.78,-0.218
1659.79,-0.21815
1659.8,-0.21736
1659.81,-0.21866
1659.82,-0.2179
1659.83,-0.21892
1659.84,-0.218
1659.85,-0.21834
1659.86,-0.2185
1659.87,-0.21807
1659.88,-0.21716
1659.89,-0.21813
1659.9,-0.21796
1659.91,-0.21691
1659.92,-0.21816
1659.93,-0.21792
1659.94,-0.21858
1659.95,-0.21742
1659.96,-0.21784
1659.97,-0.21859
1659.98,-0.21779
1659.99,-0.21754
1660,-0.21776
1660.01,-0.21723
1660.02,-0.21712
1660.03,-0.21773
1660.04,-0.2181
1660.05,-0.21735
1660.06,-0.21836
1660.07,-0.218
1660.08,-0.21805
1660.09,-0.2178
1660.1,-0.21794
1660.11,-0.21735
1660.12,-0.21794
1660.13,-0.21786
1660.14,-0.21785
1660.15,-0.21811
1660.16,-0.21882
1660.17,-0.21707
1660.18,-0.21847
1660.19,-0.21749
1660.2,-0.21909
1660.21,-0.21721
1660.22,-0.2173
1660.23,-0.21776
1660.24,-0.21771
1660.25,-0.21777
1660.26,-0.21763
1660.27,-0.21787
1660.28,-0.21804
1660.29,-0.21796
1660.3,-0.21834
1660.31,-0.21775
1660.32,-0.21767
1660.33,-0.21769
1660.34,-0.21718
1660.35,-0.21787
1660.36,-0.21732
1660.37,-0.21812
1660.38,-0.21848
1660.39,-0.21758
1660.4,-0.2185
1660.41,-0.21817
1660.42,-0.21865
1660.43,-0.21788
1660.44,-0.2178
1660.45,-0.21721
1660.46,-0.21887
1660.47,-0.21752
1660.48,-0.21764
1660.49,-0.21814
1660.5,-0.21845
1660.51,-0.21889
1660.52,-0.2179
1660.53,-0.21853
1660.54,-0.21699
1660.55,-0.21892
1660.56,-0.21819
1660.57,-0.21751
1660.58,-0.21776
1660.59,-0.21755
1660.6,-0.21793
1660.61,-0.21819
1660.62,-0.21885
1660.63,-0.21855
1660.64,-0.21826
1660.65,-0.2188
1660.66,-0.21707
1660.67,-0.21773
1660.68,-0.21748
1660.69,-0.21804
1660.7,-0.21772
1660.71,-0.21807
1660.72,-0.21842
1660.73,-0.2186
1660.74,-0.21846
1660.75,-0.21827
1660.76,-0.21838
1660.77,-0.21841
1660.78,-0.21854
1660.79,-0.21761
1660.8,-0.21839
1660.81,-0.2182
1660.82,-0.21862
1660.83,-0.21773
1660.84,-0.21969
1660.85,-0.21855
1660.86,-0.21838
1660.87,-0.2191
1660.88,-0.21855
1660.89,-0.21836
1660.9,-0.21823
1660.91,-0.21824
1660.92,-0.21819
1660.93,-0.21892
1660.94,-0.21842
1660.95,-0.21928
1660.96,-0.21882
1660.97,-0.21874
1660.98,-0.21874
1660.99,-0.21873
1661,-0.21883
1661.01,-0.2182
1661.02,-0.21842
1661.03,-0.21892
1661.04,-0.21924
1661.05,-0.21867
1661.06,-0.21893
1661.07,-0.21907
1661.08,-0.21881
1661.09,-0.21849
1661.1,-0.21877
1661.11,-0.21837
1661.12,-0.21877
1661.13,-0.21852
1661.14,-0.2178
1661.15,-0.21921
1661.16,-0.21814
1661.17,-0.21908
1661.18,-0.21884
1661.19,-0.21902
1661.2,-0.21848
1661.21,-0.2188
1661.22,-0.21857
1661.23,-0.21895
1661.24,-0.21889
1661.25,-0.21861
1661.26,-0.21836
1661.27,-0.21857
1661.28,-0.21874
1661.29,-0.21912
1661.3,-0.21948
1661.31,-0.2189
1661.32,-0.21875
1661.33,-0.21851
1661.34,-0.21835
1661.35,-0.21897
1661.36,-0.21815
1661.37,-0.21841
1661.38,-0.21891
1661.39,-0.21877
1661.4,-0.21946
1661.41,-0.21906
1661.42,-0.21892
1661.43,-0.21923
1661.44,-0.21856
1661.45,-0.21874
1661.46,-0.21864
1661.47,-0.21841
1661.48,-0.21904
1661.49,-0.21887
1661.5,-0.21927
1661.51,-0.2193
1661.52,-0.21914
1661.53,-0.21968
1661.54,-0.21832
1661.55,-0.2191
1661.56,-0.21877
1661.57,-0.21853
1661.58,-0.21958
1661.59,-0.2183
1661.6,-0.21939
1661.61,-0.21861
1661.62,-0.21929
1661.63,-0.21998
1661.64,-0.21884
1661.65,-0.21935
1661.66,-0.21943
1661.67,-0.21902
1661.68,-0.21828
1661.69,-0.21869
1661.7,-0.21907
1661.71,-0.21873
1661.72,-0.21943
1661.73,-0.21845
1661.74,-0.21961
1661.75,-0.22036
1661.76,-0.2186
1661.77,-0.21916
1661.78,-0.21938
1661.79,-0.21888
1661.8,-0.21903
1661.81,-0.21896
1661.82,-0.21859
1661.83,-0.21866
1661.84,-0.2195
1661.85,-0.21932
1661.86,-0.21955
1661.87,-0.2194
1661.88,-0.21907
1661.89,-0.21865
1661.9,-0.21894
1661.91,-0.21845
1661.92,-0.21877
1661.93,-0.21911
1661.94,-0.21873
1661.95,-0.21897
1661.96,-0.21915
1661.97,-0.21946
1661.98,-0.21872
1661.99,-0.21935
1662,-0.21919
1662.01,-0.21809
1662.02,-0.21956
1662.03,-0.2181
1662.04,-0.21941
1662.05,-0.21849
1662.06,-0.21939
1662.07,-0.21895
1662.08,-0.21906
1662.09,-0.21906
1662.1,-0.21866
1662.11,-0.2203
1662.12,-0.21832
1662.13,-0.21964
1662.14,-0.21956
1662.15,-0.21941
1662.16,-0.22
1662.17,-0.22773
1662.18,-0.25247
1662.19,-0.30488
1662.2,-0.39238
1662.21,-0.51809
1662.22,-0.70438
1662.23,-0.88728
1662.24,-1.07524
1662.25,-1.22425
1662.26,-1.32529
1662.27,-1.3531
1662.28,-1.28764
1662.29,-1.15486
1662.3,-0.98041
1662.31,-0.78447
1662.32,-0.61176
1662.33,-0.46849
1662.34,-0.36299
1662.35,-0.29325
1662.36,-0.25016
1662.37,-0.23175
1662.38,-0.22377
1662.39,-0.22006
1662.4,-0.21988
1662.41,-0.21958
1662.42,-0.21934
1662.43,-0.21921
1662.44,-0.21901
1662.45,-0.21876
1662.46,-0.21878
1662.47,-0.21859
1662.48,-0.21868
1662.49,-0.2192
1662.5,-0.21928
1662.51,-0.2193
1662.52,-0.21871
1662.53,-0.21945
1662.54,-0.2193
1662.55,-0.21892
1662.56,-0.21876
1662.57,-0.21899
1662.58,-0.21909
1662.59,-0.2186
1662.6,-0.21909
1662.61,-0.21923
1662.62,-0.21969
1662.63,-0.2193
1662.64,-0.21989
1662.65,-0.21987
1662.66,-0.21959
1662.67,-0.21936
1662.68,-0.21924
1662.69,-0.21867
1662.7,-0.21933
1662.71,-0.21902
1662.72,-0.21904
1662.73,-0.22105
1662.74,-0.21892
1662.75,-0.21972
1662.76,-0.2197
1662.77,-0.22006
1662.78,-0.21932
1662.79,-0.21951
1662.8,-0.21888
1662.81,-0.21963
1662.82,-0.219
1662.83,-0.22004
1662.84,-0.21952
1662.85,-0.22014
1662.86,-0.2204
1662.87,-0.21939
1662.88,-0.22005
1662.89,-0.21981
1662.9,-0.21938
1662.91,-0.21924
1662.92,-0.21944
1662.93,-0.21953
1662.94,-0.21975
1662.95,-0.21988
1662.96,-0.22003
1662.97,-0.21989
1662.98,-0.2206
1662.99,-0.2201
1663,-0.21875
1663.01,-0.22098
1663.02,-0.21954
1663.03,-0.21946
1663.04,-0.21953
1663.05,-0.21954
1663.06,-0.21982
1663.07,-0.21964
1663.08,-0.22029
1663.09,-0.2199
1663.1,-0.21987
1663.11,-0.2197
1663.12,-0.21991
1663.13,-0.21971
1663.14,-0.21917
1663.15,-0.21941
1663.16,-0.22017
1663.17,-0.21951
1663.18,-0.22008
1663.19,-0.21961
1663.2,-0.22051
1663.21,-0.21996
1663.22,-0.21995
1663.23,-0.21963
1663.24,-0.21944
1663.25,-0.21939
1663.26,-0.2194
1663.27,-0.21943
1663.28,-0.21971
1663.29,-0.22023
1663.3,-0.22008
1663.31,-0.21995
1663.32,-0.22022
1663.33,-0.22009
1663.34,-0.21994
1663.35,-0.2189
1663.36,-0.21892
1663.37,-0.21968
1663.38,-0.21927
1663.39,-0.21948
1663.4,-0.21996
1663.41,-0.21982
1663.42,-0.21988
1663.43,-0.21979
1663.44,-0.21988
1663.45,-0.21908
1663.46,-0.21943
1663.47,-0.21933
1663.48,-0.21945
1663.49,-0.21925
1663.5,-0.21948
1663.51,-0.21968
1663.52,-0.21951
1663.53,-0.21998
1663.54,-0.21961
1663.55,-0.21952
1663.56,-0.21961
1663.57,-0.21933
1663.58,-0.21911
1663.59,-0.21898
1663.6,-0.21886
1663.61,-0.21894
1663.62,-0.21919
1663.63,-0.21967
1663.64,-0.21928
1663.65,-0.21947
1663.66,-0.21937
1663.67,-0.21941
1663.68,-0.21878
1663.69,-0.21893
1663.7,-0.2184
1663.71,-0.21854
1663.72,-0.21938
1663.73,-0.21933
1663.74,-0.21902
1663.75,-0.21893
1663.76,-0.21934
1663.77,-0.21941
1663.78,-0.21877
1663.79,-0.21891
1663.8,-0.21848
1663.81,-0.21846
1663.82,-0.21877
1663.83,-0.21894
1663.84,-0.21855
1663.85,-0.21944
1663.86,-0.21959
1663.87,-0.21919
1663.88,-0.21952
1663.89,-0.21935
1663.9,-0.21927
1663.91,-0.21866
1663.92,-0.21935
1663.93,-0.21892
1663.94,-0.21873
1663.95,-0.21945
1663.96,-0.21929
1663.97,-0.21937
1663.98,-0.21943
1663.99,-0.2192
1664,-0.21878
1664.01,-0.21958
1664.02,-0.21899
1664.03,-0.21912
1664.04,-0.21883
1664.05,-0.21909
1664.06,-0.21872
1664.07,-0.21957
1664.08,-0.21938
1664.09,-0.21969
1664.1,-0.21999
1664.11,-0.21975
1664.12,-0.21924
1664.13,-0.2195
1664.14,-0.21945
1664.15,-0.21886
1664.16,-0.21916
1664.17,-0.21965
1664.18,-0.21938
1664.19,-0.22004
1664.2,-0.22006
1664.21,-0.22006
1664.22,-0.21987
1664.23,-0.21973
1664.24,-0.21975
1664.25,-0.21968
1664.26,-0.21895
1664.27,-0.21995
1664.28,-0.21937
1664.29,-0.21968
1664.3,-0.21991
1664.31,-0.22018
1664.32,-0.22084
1664.33,-0.22062
1664.34,-0.22053
1664.35,-0.2202
1664.36,-0.2201
1664.37,-0.21965
1664.38,-0.2196
1664.39,-0.21998
1664.4,-0.22045
1664.41,-0.22008
1664.42,-0.22044
1664.43,-0.22041
1664.44,-0.22098
1664.45,-0.22022
1664.46,-0.22055
1664.47,-0.22006
1664.48,-0.21982
1664.49,-0.2195
1664.5,-0.22048
1664.51,-0.21991
1664.52,-0.22031
1664.53,-0.22045
1664.54,-0.22008
1664.55,-0.22041
1664.56,-0.22061
1664.57,-0.22023
1664.58,-0.21952
1664.59,-0.21982
1664.6,-0.21949
1664.61,-0.21999
1664.62,-0.22026
1664.63,-0.22003
1664.64,-0.22066
1664.65,-0.22037
1664.66,-0.22051
1664.67,-0.21986
1664.68,-0.22002
1664.69,-0.22019
1664.7,-0.21984
1664.71,-0.21959
1664.72,-0.21959
1664.73,-0.21988
1664.74,-0.21999
1664.75,-0.22024
1664.76,-0.22069
1664.77,-0.21958
1664.78,-0.21972
1664.79,-0.21968
1664.8,-0.21912
1664.81,-0.21888
1664.82,-0.2194
1664.83,-0.21892
1664.84,-0.21943
1664.85,-0.21975
1664.86,-0.21898
1664.87,-0.21981
1664.88,-0.21935
1664.89,-0.21991
1664.9,-0.21943
1664.91,-0.21856
1664.92,-0.21902
1664.93,-0.2189
1664.94,-0.21905
1664.95,-0.21925
1664.96,-0.21868
1664.97,-0.2194
1664.98,-0.21917
1664.99,-0.21991
1665,-0.21942
1665.01,-0.21912
1665.02,-0.21898
1665.03,-0.21855
1665.04,-0.21855
1665.05,-0.219
1665.06,-0.21881
1665.07,-0.2189
1665.08,-0.21947
1665.09,-0.21933
1665.1,-0.21933
1665.11,-0.21912
1665.12,-0.21908
1665.13,-0.21938
1665.14,-0.21849
1665.15,-0.21856
1665.16,-0.21851
1665.17,-0.21906
1665.18,-0.21872
1665.19,-0.21876
1665.2,-0.21909
1665.21,-0.21967
1665.22,-0.21952
1665.23,-0.21995
1665.24,-0.21953
1665.25,-0.21957
1665.26,-0.2183
1665.27,-0.21957
1665.28,-0.21904
1665.29,-0.22004
1665.3,-0.21987
1665.31,-0.2198
1665.32,-0.22022
1665.33,-0.2203
1665.34,-0.22035
1665.35,-0.21987
1665.36,-0.22025
1665.37,-0.22
1665.38,-0.21951
1665.39,-0.21988
1665.4,-0.21992
1665.41,-0.22004
1665.42,-0.21991
1665.43,-0.22056
1665.44,-0.21984
1665.45,-0.22053
1665.46,-0.21997
1665.47,-0.21963
1665.48,-0.21991
1665.49,-0.21926
1665.5,-0.22021
1665.51,-0.21968
1665.52,-0.21966
1665.53,-0.21992
1665.54,-0.22016
1665.55,-0.22038
1665.56,-0.21968
1665.57,-0.21978
1665.58,-0.21945
1665.59,-0.2196
1665.6,-0.21946
1665.61,-0.21994
1665.62,-0.21973
1665.63,-0.21989
1665.64,-0.22032
1665.65,-0.22019
1665.66,-0.22061
1665.67,-0.22057
1665.68,-0.21959
1665.69,-0.22008
1665.7,-0.21977
1665.71,-0.21973
1665.72,-0.22009
1665.73,-0.21906
1665.74,-0.22035
1665.75,-0.22018
1665.76,-0.22038
1665.77,-0.22031
1665.78,-0.22034
1665.79,-0.22033
1665.8,-0.22031
1665.81,-0.21974
1665.82,-0.21982
1665.83,-0.22011
1665.84,-0.21982
1665.85,-0.22048
1665.86,-0.22053
1665.87,-0.22104
1665.88,-0.2213
1665.89,-0.22075
1665.9,-0.22094
1665.91,-0.22084
1665.92,-0.22075
1665.93,-0.22052
1665.94,-0.2205
1665.95,-0.22012
1665.96,-0.22006
1665.97,-0.2203
1665.98,-0.22049
1665.99,-0.22036
1666,-0.22051
1666.01,-0.21993
1666.02,-0.21998
1666.03,-0.21928
1666.04,-0.2193
1666.05,-0.21937
1666.06,-0.21906
1666.07,-0.21902
1666.08,-0.21985
1666.09,-0.21946
1666.1,-0.21988
1666.11,-0.21983
1666.12,-0.21994
1666.13,-0.21923
1666.14,-0.21932
1666.15,-0.21935
1666.16,-0.21922
1666.17,-0.21952
1666.18,-0.2198
1666.19,-0.21941
1666.2,-0.21978
1666.21,-0.22036
1666.22,-0.22004
1666.23,-0.21942
1666.24,-0.2203
1666.25,-0.21976
1666.26,-0.21848
1666.27,-0.21941
1666.28,-0.21933
1666.29,-0.21918
1666.3,-0.21909
1666.31,-0.21989
1666.32,-0.21957
1666.33,-0.2199
1666.34,-0.22035
1666.35,-0.21977
1666.36,-0.2203
1666.37,-0.22
1666.38,-0.21964
1666.39,-0.21928
1666.4,-0.22047
1666.41,-0.22055
1666.42,-0.22116
1666.43,-0.22071
1666.44,-0.22001
1666.45,-0.22091
1666.46,-0.22057
1666.47,-0.21988
1666.48,-0.22019
1666.49,-0.2188
1666.5,-0.21905
1666.51,-0.21942
1666.52,-0.21902
1666.53,-0.21945
1666.54,-0.21971
1666.55,-0.21987
1666.56,-0.21993
1666.57,-0.21976
1666.58,-0.21954
1666.59,-0.21978
1666.6,-0.2198
1666.61,-0.21924
1666.62,-0.21933
1666.63,-0.21981
1666.64,-0.2202
1666.65,-0.22035
1666.66,-0.22053
1666.67,-0.21967
1666.68,-0.22075
1666.69,-0.22012
1666.7,-0.22019
1666.71,-0.22022
1666.72,-0.21972
1666.73,-0.22011
1666.74,-0.22024
1666.75,-0.22051
1666.76,-0.22059
1666.77,-0.22067
1666.78,-0.22087
1666.79,-0.22066
1666.8,-0.22086
1666.81,-0.22065
1666.82,-0.22094
1666.83,-0.22088
1666.84,-0.22094
1666.85,-0.22109
1666.86,-0.22118
1666.87,-0.22117
1666.88,-0.22015
1666.89,-0.2208
1666.9,-0.22057
1666.91,-0.21993
1666.92,-0.21948
1666.93,-0.21955
1666.94,-0.21914
1666.95,-0.2198
1666.96,-0.21946
1666.97,-0.21957
1666.98,-0.22004
1666.99,-0.2199
1667,-0.22044
1667.01,-0.22027
1667.02,-0.22001
1667.03,-0.22006
1667.04,-0.21998
1667.05,-0.21956
1667.06,-0.21989
1667.07,-0.22048
1667.08,-0.2211
1667.09,-0.22103
1667.1,-0.22134
1667.11,-0.22138
1667.12,-0.22118
1667.13,-0.22153
1667.14,-0.22172
1667.15,-0.2211
1667.16,-0.22126
1667.17,-0.22135
1667.18,-0.22124
1667.19,-0.22087
1667.2,-0.22132
1667.21,-0.22128
1667.22,-0.22086
1667.23,-0.22129
1667.24,-0.22042
1667.25,-0.21985
1667.26,-0.22021
1667.27,-0.21961
1667.28,-0.22013
1667.29,-0.21973
1667.3,-0.2202
1667.31,-0.22
1667.32,-0.22025
1667.33,-0.22084
1667.34,-0.22003
1667.35,-0.2205
1667.36,-0.22005
1667.37,-0.2197
1667.38,-0.22022
1667.39,-0.21909
1667.4,-0.22061
1667.41,-0.21988
1667.42,-0.22016
1667.43,-0.22086
1667.44,-0.22025
1667.45,-0.22139
1667.46,-0.2212
1667.47,-0.22128
1667.48,-0.22131
1667.49,-0.22091
1667.5,-0.22106
1667.51,-0.22151
1667.52,-0.22089
1667.53,-0.22082
1667.54,-0.22131
1667.55,-0.22109
1667.56,-0.22048
1667.57,-0.22151
1667.58,-0.21991
1667.59,-0.22038
1667.6,-0.21951
1667.61,-0.21923
1667.62,-0.21934
1667.63,-0.2197
1667.64,-0.21994
1667.65,-0.2206
1667.66,-0.22068
1667.67,-0.22041
1667.68,-0.22059
1667.69,-0.22044
1667.7,-0.22087
1667.71,-0.22059
1667.72,-0.22074
1667.73,-0.22031
1667.74,-0.22152
1667.75,-0.22134
1667.76,-0.22171
1667.77,-0.2215
1667.78,-0.22188
1667.79,-0.22067
1667.8,-0.22083
1667.81,-0.22071
1667.82,-0.22044
1667.83,-0.22048
1667.84,-0.22008
1667.85,-0.22001
1667.86,-0.22058
1667.87,-0.22016
1667.88,-0.21979
1667.89,-0.22066
1667.9,-0.22076
1667.91,-0.22034
1667.92,-0.22017
1667.93,-0.22027
1667.94,-0.22019
1667.95,-0.22037
1667.96,-0.22033
1667.97,-0.22032
1667.98,-0.21979
1667.99,-0.22108
1668,-0.22029
1668.01,-0.22034
1668.02,-0.22075
1668.03,-0.22028
1668.04,-0.22015
1668.05,-0.22038
1668.06,-0.22
1668.07,-0.22056
1668.08,-0.21987
1668.09,-0.22017
1668.1,-0.22114
1668.11,-0.21966
1668.12,-0.22013
1668.13,-0.22088
1668.14,-0.21986
1668.15,-0.21938
1668.16,-0.21916
1668.17,-0.21952
1668.18,-0.2188
1668.19,-0.21938
1668.2,-0.21928
1668.21,-0.21955
1668.22,-0.21989
1668.23,-0.21925
1668.24,-0.21929
1668.25,-0.21964
1668.26,-0.21876
1668.27,-0.21844
1668.28,-0.21839
1668.29,-0.21888
1668.3,-0.21894
1668.31,-0.21937
1668.32,-0.21858
1668.33,-0.2193
1668.34,-0.21978
1668.35,-0.21972
1668.36,-0.21961
1668.37,-0.21979
1668.38,-0.21929
1668.39,-0.21902
1668.4,-0.21911
1668.41,-0.21993
1668.42,-0.2197
1668.43,-0.2207
1668.44,-0.21975
1668.45,-0.22056
1668.46,-0.22033
1668.47,-0.22001
1668.48,-0.22051
1668.49,-0.21955
1668.5,-0.22036
1668.51,-0.21954
1668.52,-0.21945
1668.53,-0.22049
1668.54,-0.2182
1668.55,-0.22023
1668.56,-0.22017
1668.57,-0.21967
1668.58,-0.21927
1668.59,-0.21981
1668.6,-0.21929
1668.61,-0.21925
1668.62,-0.21845
1668.63,-0.219
1668.64,-0.21982
1668.65,-0.21889
1668.66,-0.21925
1668.67,-0.21971
1668.68,-0.21925
1668.69,-0.21984
1668.7,-0.21934
1668.71,-0.21964
1668.72,-0.22006
1668.73,-0.21869
1668.74,-0.21945
1668.75,-0.22055
1668.76,-0.2195
1668.77,-0.21994
1668.78,-0.22016
1668.79,-0.22048
1668.8,-0.21983
1668.81,-0.22026
1668.82,-0.21953
1668.83,-0.21888
1668.84,-0.21918
1668.85,-0.21914
1668.86,-0.21926
1668.87,-0.21935
1668.88,-0.21988
1668.89,-0.21991
1668.9,-0.22028
1668.91,-0.22005
1668.92,-0.2197
1668.93,-0.21966
1668.94,-0.22052
1668.95,-0.2194
1668.96,-0.22029
1668.97,-0.22048
1668.98,-0.22093
1668.99,-0.22136
1669,-0.22178
1669.01,-0.22202
1669.02,-0.22186
1669.03,-0.22179
1669.04,-0.22181
1669.05,-0.22144
1669.06,-0.22223
1669.07,-0.22006
1669.08,-0.22159
1669.09,-0.2209
1669.1,-0.22073
1669.11,-0.22085
1669.12,-0.22069
1669.13,-0.22081
1669.14,-0.22065
1669.15,-0.22014
1669.16,-0.21961
1669.17,-0.21949
1669.18,-0.21987
1669.19,-0.21917
1669.2,-0.21958
1669.21,-0.2199
1669.22,-0.21971
1669.23,-0.22004
1669.24,-0.22066
1669.25,-0.22009
1669.26,-0.22037
1669.27,-0.22034
1669.28,-0.21985
1669.29,-0.22042
1669.3,-0.22071
1669.31,-0.22063
1669.32,-0.22081
1669.33,-0.22128
1669.34,-0.22089
1669.35,-0.22137
1669.36,-0.22007
1669.37,-0.22041
1669.38,-0.22066
1669.39,-0.22033
1669.4,-0.21976
1669.41,-0.21956
1669.42,-0.21993
1669.43,-0.21962
1669.44,-0.22022
1669.45,-0.21997
1669.46,-0.22072
1669.47,-0.22066
1669.48,-0.22108
1669.49,-0.22122
1669.5,-0.22191
1669.51,-0.22094
1669.52,-0.22207
1669.53,-0.22189
1669.54,-0.22176
1669.55,-0.22198
1669.56,-0.22153
1669.57,-0.22147
1669.58,-0.2206
1669.59,-0.22004
1669.6,-0.21967
1669.61,-0.2194
1669.62,-0.21973
1669.63,-0.21853
1669.64,-0.2189
1669.65,-0.21854
1669.66,-0.21911
1669.67,-0.21881
1669.68,-0.21899
1669.69,-0.21895
1669.7,-0.219
1669.71,-0.21851
1669.72,-0.21844
1669.73,-0.21842
1669.74,-0.21825
1669.75,-0.21848
1669.76,-0.21926
1669.77,-0.21912
1669.78,-0.21993
1669.79,-0.2198
1669.8,-0.21989
1669.81,-0.22047
1669.82,-0.21987
1669.83,-0.21944
1669.84,-0.21991
1669.85,-0.22015
1669.86,-0.21942
1669.87,-0.21981
1669.88,-0.22009
1669.89,-0.22064
1669.9,-0.2199
1669.91,-0.22139
1669.92,-0.22104
1669.93,-0.22148
1669.94,-0.2214
1669.95,-0.22139
1669.96,-0.22112
1669.97,-0.22179
1669.98,-0.22161
1669.99,-0.22046
1670,-0.21931
1670.01,-0.22036
1670.02,-0.22008
1670.03,-0.21966
1670.04,-0.21915
1670.05,-0.21908
1670.06,-0.21834
1670.07,-0.21862
1670.08,-0.21832
1670.09,-0.21843
1670.1,-0.21904
1670.11,-0.21923
1670.12,-0.21886
1670.13,-0.21944
1670.14,-0.21918
1670.15,-0.21929
1670.16,-0.21943
1670.17,-0.21916
1670.18,-0.21955
1670.19,-0.21986
1670.2,-0.22006
1670.21,-0.22118
1670.22,-0.22159
1670.23,-0.2214
1670.24,-0.22272
1670.25,-0.22215
1670.26,-0.2227
1670.27,-0.22263
1670.28,-0.22247
1670.29,-0.2234
1670.3,-0.2222
1670.31,-0.22252
1670.32,-0.22228
1670.33,-0.22221
1670.34,-0.22148
1670.35,-0.22178
1670.36,-0.22034
1670.37,-0.22025
1670.38,-0.21954
1670.39,-0.21938
1670.4,-0.21923
1670.41,-0.21913
1670.42,-0.21868
1670.43,-0.21919
1670.44,-0.21927
1670.45,-0.21932
1670.46,-0.21953
1670.47,-0.21996
1670.48,-0.21903
1670.49,-0.21976
1670.5,-0.21917
1670.51,-0.21936
1670.52,-0.21908
1670.53,-0.21923
1670.54,-0.21972
1670.55,-0.22009
1670.56,-0.22088
1670.57,-0.22136
1670.58,-0.22182
1670.59,-0.22218
1670.6,-0.22218
1670.61,-0.22232
1670.62,-0.22224
1670.63,-0.22214
1670.64,-0.22188
1670.65,-0.22137
1670.66,-0.22118
1670.67,-0.22047
1670.68,-0.22039
1670.69,-0.21985
1670.7,-0.22
1670.71,-0.21906
1670.72,-0.21904
1670.73,-0.21842
1670.74,-0.21889
1670.75,-0.21866
1670.76,-0.21836
1670.77,-0.21933
1670.78,-0.21919
1670.79,-0.21934
1670.8,-0.21988
1670.81,-0.21979
1670.82,-0.22059
1670.83,-0.2203
1670.84,-0.22046
1670.85,-0.22118
1670.86,-0.221
1670.87,-0.22163
1670.88,-0.22107
1670.89,-0.22141
1670.9,-0.22108
1670.91,-0.22125
1670.92,-0.22037
1670.93,-0.2202
1670.94,-0.21991
1670.95,-0.21977
1670.96,-0.21936
1670.97,-0.2189
1670.98,-0.21919
1670.99,-0.21942
1671,-0.21937
1671.01,-0.21933
1671.02,-0.21999
1671.03,-0.2198
1671.04,-0.22011
1671.05,-0.22001
1671.06,-0.21942
1671.07,-0.22029
1671.08,-0.21947
1671.09,-0.22015
1671.1,-0.21964
1671.11,-0.21998
1671.12,-0.22025
1671.13,-0.22046
1671.14,-0.22059
1671.15,-0.21986
1671.16,-0.22003
1671.17,-0.22351
1671.18,-0.23651
1671.19,-0.27155
1671.2,-0.33693
1671.21,-0.44248
1671.22,-0.57449
1671.23,-0.72405
1671.24,-0.87402
1671.25,-1.0014
1671.26,-1.08059
1671.27,-1.10705
1671.28,-1.07877
1671.29,-0.99352
1671.3,-0.86584
1671.31,-0.71159
1671.32,-0.56121
1671.33,-0.43548
1671.34,-0.34191
1671.35,-0.28127
1671.36,-0.24925
1671.37,-0.23201
1671.38,-0.22367
1671.39,-0.21952
1671.4,-0.21815
1671.41,-0.21822
1671.42,-0.2178
1671.43,-0.21852
1671.44,-0.21829
1671.45,-0.21825
1671.46,-0.21853
1671.47,-0.2183
1671.48,-0.21887
1671.49,-0.21815
1671.5,-0.21858
1671.51,-0.21826
1671.52,-0.21857
1671.53,-0.21873
1671.54,-0.21887
1671.55,-0.21953
1671.56,-0.21978
1671.57,-0.22006
1671.58,-0.22032
1671.59,-0.22057
1671.6,-0.22024
1671.61,-0.22048
1671.62,-0.22001
1671.63,-0.22004
1671.64,-0.21982
1671.65,-0.21946
1671.66,-0.2198
1671.67,-0.21955
1671.68,-0.2201
1671.69,-0.21911
1671.7,-0.21982
1671.71,-0.21897
1671.72,-0.21852
1671.73,-0.21912
1671.74,-0.21778
1671.75,-0.21857
1671.76,-0.21865
1671.77,-0.21864
1671.78,-0.21886
1671.79,-0.21882
1671.8,-0.21939
1671.81,-0.21896
1671.82,-0.21927
1671.83,-0.21865
1671.84,-0.21902
1671.85,-0.21881
1671.86,-0.21863
1671.87,-0.21886
1671.88,-0.21895
1671.89,-0.21964
1671.9,-0.21908
1671.91,-0.21937
1671.92,-0.21948
1671.93,-0.2195
1671.94,-0.21881
1671.95,-0.21868
1671.96,-0.21856
1671.97,-0.2183
1671.98,-0.21763
1671.99,-0.21826
1672,-0.21865
1672.01,-0.21893
1672.02,-0.21855
1672.03,-0.21827
1672.04,-0.21897
1672.05,-0.21831
1672.06,-0.218
1672.07,-0.21848
1672.08,-0.218
1672.09,-0.21856
1672.1,-0.21835
1672.11,-0.21935
1672.12,-0.21928
1672.13,-0.21977
1672.14,-0.22022
1672.15,-0.2203
1672.16,-0.22089
1672.17,-0.2203
1672.18,-0.22073
1672.19,-0.22054
1672.2,-0.22019
1672.21,-0.2198
1672.22,-0.21954
1672.23,-0.22003
1672.24,-0.21939
1672.25,-0.2195
1672.26,-0.21858
1672.27,-0.21861
1672.28,-0.21809
1672.29,-0.21755
1672.3,-0.21758
1672.31,-0.21739
1672.32,-0.21735
1672.33,-0.2174
1672.34,-0.21775
1672.35,-0.21777
1672.36,-0.21851
1672.37,-0.2176
1672.38,-0.21754
1672.39,-0.2175
1672.4,-0.21752
1672.41,-0.21794
1672.42,-0.21783
1672.43,-0.21835
1672.44,-0.21852
1672.45,-0.21939
1672.46,-0.21937
1672.47,-0.21938
1672.48,-0.21918
1672.49,-0.21922
1672.5,-0.21897
1672.51,-0.21867
1672.52,-0.21839
1672.53,-0.21776
1672.54,-0.21758
1672.55,-0.21853
1672.56,-0.21799
1672.57,-0.21843
1672.58,-0.21836
1672.59,-0.21888
1672.6,-0.2188
1672.61,-0.2191
1672.62,-0.2195
1672.63,-0.21963
1672.64,-0.22071
1672.65,-0.22092
1672.66,-0.22151
1672.67,-0.22226
1672.68,-0.22223
1672.69,-0.22229
1672.7,-0.22247
1672.71,-0.22126
1672.72,-0.22072
1672.73,-0.22019
1672.74,-0.21948
1672.75,-0.21837
1672.76,-0.21765
1672.77,-0.21774
1672.78,-0.21755
1672.79,-0.21746
1672.8,-0.21756
1672.81,-0.21739
1672.82,-0.21747
1672.83,-0.2167
1672.84,-0.2171
1672.85,-0.21689
1672.86,-0.21633
1672.87,-0.2168
1672.88,-0.21751
1672.89,-0.21674
1672.9,-0.21753
1672.91,-0.21753
1672.92,-0.21793
1672.93,-0.21823
1672.94,-0.21859
1672.95,-0.21843
1672.96,-0.21855
1672.97,-0.2186
1672.98,-0.21866
1672.99,-0.21868
1673,-0.21889
1673.01,-0.21871
1673.02,-0.21927
1673.03,-0.21853
1673.04,-0.21984
1673.05,-0.21958
1673.06,-0.21979
1673.07,-0.22049
1673.08,-0.22082
1673.09,-0.2214
1673.1,-0.2214
1673.11,-0.22148
1673.12,-0.22144
1673.13,-0.22139
1673.14,-0.22071
1673.15,-0.2202
1673.16,-0.21818
1673.17,-0.21783
1673.18,-0.2171
1673.19,-0.21662
1673.2,-0.21593
1673.21,-0.21638
1673.22,-0.2155
1673.23,-0.21667
1673.24,-0.21572
1673.25,-0.21639
1673.26,-0.21593
1673.27,-0.21629
1673.28,-0.21592
1673.29,-0.21585
1673.3,-0.21577
1673.31,-0.21606
1673.32,-0.21577
1673.33,-0.21625
1673.34,-0.21676
1673.35,-0.21753
1673.36,-0.21805
1673.37,-0.21845
1673.38,-0.21917
1673.39,-0.21985
1673.4,-0.21917
1673.41,-0.2205
1673.42,-0.22046
1673.43,-0.22061
1673.44,-0.22101
1673.45,-0.22115
1673.46,-0.22077
1673.47,-0.22026
1673.48,-0.22049
1673.49,-0.2188
1673.5,-0.21812
1673.51,-0.21694
1673.52,-0.2159
1673.53,-0.21593
1673.54,-0.21488
1673.55,-0.21508
1673.56,-0.21452
1673.57,-0.21485
1673.58,-0.21486
1673.59,-0.21551
1673.6,-0.21498
1673.61,-0.21495
1673.62,-0.21507
1673.63,-0.21468
1673.64,-0.21462
1673.65,-0.21458
1673.66,-0.21473
1673.67,-0.21557
1673.68,-0.21532
1673.69,-0.2161
1673.7,-0.21606
1673.71,-0.21716
1673.72,-0.21732
1673.73,-0.21823
1673.74,-0.21903
1673.75,-0.21847
1673.76,-0.22034
1673.77,-0.22015
1673.78,-0.22025
1673.79,-0.21947
1673.8,-0.21995
1673.81,-0.21862
1673.82,-0.21816
1673.83,-0.21722
1673.84,-0.21657
1673.85,-0.21575
1673.86,-0.21523
1673.87,-0.21489
1673.88,-0.21494
1673.89,-0.21496
1673.9,-0.21538
1673.91,-0.21535
1673.92,-0.21575
1673.93,-0.21544
1673.94,-0.21572
1673.95,-0.2157
1673.96,-0.21601
1673.97,-0.21646
1673.98,-0.21738
1673.99,-0.21745
1674,-0.21829
1674.01,-0.21897
1674.02,-0.21992
1674.03,-0.21978
1674.04,-0.22001
1674.05,-0.2192
1674.06,-0.21877
1674.07,-0.21759
1674.08,-0.21692
1674.09,-0.21697
1674.1,-0.21641
1674.11,-0.21591
1674.12,-0.21621
1674.13,-0.21604
1674.14,-0.21638
1674.15,-0.21635
1674.16,-0.2164
1674.17,-0.21653
1674.18,-0.21578
1674.19,-0.21544
1674.2,-0.21604
1674.21,-0.21655
1674.22,-0.21629
1674.23,-0.21819
1674.24,-0.21786
1674.25,-0.21889
1674.26,-0.21805
1674.27,-0.21835
1674.28,-0.21782
1674.29,-0.22465
1674.3,-0.2498
1674.31,-0.30913
1674.32,-0.4355
1674.33,-0.64017
1674.34,-0.91407
1674.35,-1.22588
1674.36,-1.53643
1674.37,-1.80216
1674.38,-1.98581
1674.39,-2.07397
1674.4,-2.03827
1674.41,-1.8968
1674.42,-1.66981
1674.43,-1.38234
1674.44,-1.08151
1674.45,-0.7955
1674.46,-0.56562
1674.47,-0.40561
1674.48,-0.31048
1674.49,-0.25824
1674.5,-0.23317
1674.51,-0.22121
1674.52,-0.2165
1674.53,-0.21474
1674.54,-0.21452
1674.55,-0.21436
1674.56,-0.21425
1674.57,-0.21445
1674.58,-0.21415
1674.59,-0.21495
1674.6,-0.21459
1674.61,-0.2141
1674.62,-0.2148
1674.63,-0.21392
1674.64,-0.2141
1674.65,-0.21412
1674.66,-0.21431
1674.67,-0.2141
1674.68,-0.2148
1674.69,-0.21519
1674.7,-0.21569
1674.71,-0.2159
1674.72,-0.2157
1674.73,-0.21614
1674.74,-0.21567
1674.75,-0.2167
1674.76,-0.21654
1674.77,-0.21606
1674.78,-0.21603
1674.79,-0.21621
1674.8,-0.21618
1674.81,-0.21642
1674.82,-0.2159
1674.83,-0.21615
1674.84,-0.21565
1674.85,-0.2153
1674.86,-0.21483
1674.87,-0.21457
1674.88,-0.21486
1674.89,-0.21428
1674.9,-0.21484
1674.91,-0.21454
1674.92,-0.21479
1674.93,-0.21433
1674.94,-0.21497
1674.95,-0.21478
1674.96,-0.21448
1674.97,-0.21422
1674.98,-0.21418
1674.99,-0.21434
1675,-0.21484
1675.01,-0.21496
1675.02,-0.21521
1675.03,-0.21538
1675.04,-0.21537
1675.05,-0.21581
1675.06,-0.21592
1675.07,-0.21496
1675.08,-0.21573
1675.09,-0.21527
1675.1,-0.21452
1675.11,-0.21497
1675.12,-0.21486
1675.13,-0.21457
1675.14,-0.21516
1675.15,-0.21468
1675.16,-0.21502
1675.17,-0.21505
1675.18,-0.21432
1675.19,-0.21426
1675.2,-0.21399
1675.21,-0.21451
1675.22,-0.21454
1675.23,-0.21431
1675.24,-0.21496
1675.25,-0.21528
1675.26,-0.21534
1675.27,-0.21626
1675.28,-0.21624
1675.29,-0.21666
1675.3,-0.21653
1675.31,-0.21705
1675.32,-0.21705
1675.33,-0.21739
1675.34,-0.21762
1675.35,-0.21737
1675.36,-0.2177
1675.37,-0.21783
1675.38,-0.21736
1675.39,-0.21728
1675.4,-0.21656
1675.41,-0.216
1675.42,-0.21523
1675.43,-0.21436
1675.44,-0.21457
1675.45,-0.21458
1675.46,-0.21417
1675.47,-0.21451
1675.48,-0.21468
1675.49,-0.21474
1675.5,-0.21447
1675.51,-0.21454
1675.52,-0.21464
1675.53,-0.21362
1675.54,-0.21429
1675.55,-0.21391
1675.56,-0.21445
1675.57,-0.21427
1675.58,-0.21526
1675.59,-0.2154
1675.6,-0.21541
1675.61,-0.21605
1675.62,-0.2159
1675.63,-0.21584
1675.64,-0.2149
1675.65,-0.21546
1675.66,-0.21446
1675.67,-0.21497
1675.68,-0.21481
1675.69,-0.21462
1675.7,-0.21492
1675.71,-0.21367
1675.72,-0.21579
1675.73,-0.2147
1675.74,-0.21452
1675.75,-0.21449
1675.76,-0.21527
1675.77,-0.21541
1675.78,-0.21567
1675.79,-0.21576
1675.8,-0.21728
1675.81,-0.21766
1675.82,-0.21901
1675.83,-0.21914
1675.84,-0.2194
1675.85,-0.21859
1675.86,-0.21804
1675.87,-0.21764
1675.88,-0.21647
1675.89,-0.21602
1675.9,-0.21527
1675.91,-0.21465
1675.92,-0.21423
1675.93,-0.21403
1675.94,-0.21327
1675.95,-0.21322
1675.96,-0.21301
1675.97,-0.21233
1675.98,-0.21281
1675.99,-0.21189
1676,-0.21194
1676.01,-0.21228
1676.02,-0.21237
1676.03,-0.21259
1676.04,-0.21247
1676.05,-0.21298
1676.06,-0.21305
1676.07,-0.21338
1676.08,-0.21369
1676.09,-0.2136
1676.1,-0.21342
1676.11,-0.21391
1676.12,-0.21433
1676.13,-0.2148
1676.14,-0.2152
1676.15,-0.21498
1676.16,-0.21531
1676.17,-0.21536
1676.18,-0.21524
1676.19,-0.21509
1676.2,-0.21543
1676.21,-0.21572
1676.22,-0.21625
1676.23,-0.21624
1676.24,-0.21787
1676.25,-0.21914
1676.26,-0.21942
1676.27,-0.21955
1676.28,-0.21933
1676.29,-0.21911
1676.3,-0.21752
1676.31,-0.21725
1676.32,-0.21597
1676.33,-0.21568
1676.34,-0.21454
1676.35,-0.21447
1676.36,-0.21391
1676.37,-0.21386
1676.38,-0.21384
1676.39,-0.2134
1676.4,-0.2134
1676.41,-0.21331
1676.42,-0.21316
1676.43,-0.21306
1676.44,-0.21313
1676.45,-0.21282
1676.46,-0.2135
1676.47,-0.21381
1676.48,-0.2141
1676.49,-0.21431
1676.5,-0.2153
1676.51,-0.21533
1676.52,-0.21574
1676.53,-0.21607
1676.54,-0.21689
1676.55,-0.21781
1676.56,-0.2188
1676.57,-0.21863
1676.58,-0.2202
1676.59,-0.22108
1676.6,-0.22058
1676.61,-0.22153
1676.62,-0.22116
1676.63,-0.22067
1676.64,-0.21922
1676.65,-0.21875
1676.66,-0.21757
1676.67,-0.21641
1676.68,-0.21587
1676.69,-0.21475
1676.7,-0.21406
1676.71,-0.21432
1676.72,-0.21373
1676.73,-0.21318
1676.74,-0.21282
1676.75,-0.21255
1676.76,-0.21215
1676.77,-0.21209
1676.78,-0.21207
1676.79,-0.212
1676.8,-0.212
1676.81,-0.21224
1676.82,-0.21257
1676.83,-0.21261
1676.84,-0.21224
1676.85,-0.21276
1676.86,-0.21279
1676.87,-0.2133
1676.88,-0.21342
1676.89,-0.21411
1676.9,-0.21476
1676.91,-0.2162
1676.92,-0.21666
1676.93,-0.21774
1676.94,-0.2182
1676.95,-0.21741
1676.96,-0.21702
1676.97,-0.21697
1676.98,-0.21527
1676.99,-0.2146
1677,-0.21349
1677.01,-0.21267
1677.02,-0.21205
1677.03,-0.21154
1677.04,-0.21219
1677.05,-0.21171
1677.06,-0.21124
1677.07,-0.21093
1677.08,-0.21028
1677.09,-0.21088
1677.1,-0.21009
1677.11,-0.21052
1677.12,-0.21081
1677.13,-0.21127
1677.14,-0.21242
1677.15,-0.2128
1677.16,-0.21378
1677.17,-0.2143
1677.18,-0.21504
1677.19,-0.21522
1677.2,-0.21504
1677.21,-0.21442
1677.22,-0.21538
1677.23,-0.21433
1677.24,-0.21321
1677.25,-0.21254
1677.26,-0.21333
1677.27,-0.21252
1677.28,-0.21292
1677.29,-0.21296
1677.3,-0.21319
1677.31,-0.21295
1677.32,-0.21283
1677.33,-0.21244
1677.34,-0.21242
1677.35,-0.21251
1677.36,-0.21319
1677.37,-0.21327
1677.38,-0.21415
1677.39,-0.2144
1677.4,-0.21466
1677.41,-0.21552
1677.42,-0.21506
1677.43,-0.2142
1677.44,-0.21674
1677.45,-0.23883
1677.46,-0.31009
1677.47,-0.47325
1677.48,-0.74442
1677.49,-1.08974
1677.5,-1.51845
1677.51,-1.95713
1677.52,-2.36635
1677.53,-2.68118
1677.54,-2.86731
1677.55,-2.91459
1677.56,-2.81093
1677.57,-2.55805
1677.58,-2.19047
1677.59,-1.78653
1677.6,-1.35942
1677.61,-0.9678
1677.62,-0.6638
1677.63,-0.45874
1677.64,-0.33348
1677.65,-0.26206
1677.66,-0.2312
1677.67,-0.21859
1677.68,-0.21419
1677.69,-0.2126
1677.7,-0.21265
1677.71,-0.21278
1677.72,-0.21242
1677.73,-0.21201
1677.74,-0.2116
1677.75,-0.2112
1677.76,-0.21123
1677.77,-0.21123
1677.78,-0.21074
1677.79,-0.21094
1677.8,-0.21071
1677.81,-0.21132
1677.82,-0.21142
1677.83,-0.21161
1677.84,-0.21152
1677.85,-0.21146
1677.86,-0.21099
1677.87,-0.21134
1677.88,-0.2109
1677.89,-0.21152
1677.9,-0.21194
1677.91,-0.2121
1677.92,-0.21257
1677.93,-0.21305
1677.94,-0.21415
1677.95,-0.21373
1677.96,-0.21411
1677.97,-0.2143
1677.98,-0.21415
1677.99,-0.21377
1678,-0.21366
1678.01,-0.21351
1678.02,-0.21277
1678.03,-0.21293
1678.04,-0.21239
1678.05,-0.2123
1678.06,-0.21241
1678.07,-0.21178
1678.08,-0.21123
1678.09,-0.21082
1678.1,-0.21057
1678.11,-0.21042
1678.12,-0.21043
1678.13,-0.21035
1678.14,-0.21018
1678.15,-0.21047
1678.16,-0.21037
1678.17,-0.2106
1678.18,-0.21004
1678.19,-0.2103
1678.2,-0.20969
1678.21,-0.21002
1678.22,-0.20992
1678.23,-0.20981
1678.24,-0.21001
1678.25,-0.21038
1678.26,-0.21111
1678.27,-0.21074
1678.28,-0.21096
1678.29,-0.21103
1678.3,-0.2101
1678.31,-0.21068
1678.32,-0.20991
1678.33,-0.20962
1678.34,-0.21017
1678.35,-0.20974
1678.36,-0.20999
1678.37,-0.20959
1678.38,-0.20982
1678.39,-0.20982
1678.4,-0.20965
1678.41,-0.20965
1678.42,-0.20859
1678.43,-0.20897
1678.44,-0.20869
1678.45,-0.20936
1678.46,-0.20931
1678.47,-0.20988
1678.48,-0.2106
1678.49,-0.21104
1678.5,-0.21154
1678.51,-0.21236
1678.52,-0.21315
1678.53,-0.21359
1678.54,-0.21385
1678.55,-0.21372
1678.56,-0.2142
1678.57,-0.21397
1678.58,-0.21467
1678.59,-0.2137
1678.6,-0.2133
1678.61,-0.21305
1678.62,-0.21222
1678.63,-0.21123
1678.64,-0.21111
1678.65,-0.21033
1678.66,-0.20926
1678.67,-0.20869
1678.68,-0.20854
1678.69,-0.20908
1678.7,-0.20844
1678.71,-0.20892
1678.72,-0.21022
1678.73,-0.20837
1678.74,-0.20876
1678.75,-0.20832
1678.76,-0.20864
1678.77,-0.20864
1678.78,-0.20881
1678.79,-0.20813
1678.8,-0.20938
1678.81,-0.20973
1678.82,-0.21075
1678.83,-0.21085
1678.84,-0.21134
1678.85,-0.21065
1678.86,-0.21111
1678.87,-0.21065
1678.88,-0.21056
1678.89,-0.21011
1678.9,-0.20973
1678.91,-0.20953
1678.92,-0.20925
1678.93,-0.20928
1678.94,-0.20912
1678.95,-0.20928
1678.96,-0.20959
1678.97,-0.20942
1678.98,-0.21012
1678.99,-0.21067
1679,-0.21144
1679.01,-0.21247
1679.02,-0.21352
1679.03,-0.21514
1679.04,-0.21623
1679.05,-0.21687
1679.06,-0.218
1679.07,-0.21793
1679.08,-0.21815
1679.09,-0.21663
1679.1,-0.21482
1679.11,-0.21424
1679.12,-0.21217
1679.13,-0.21154
1679.14,-0.21033
1679.15,-0.21037
1679.16,-0.20888
1679.17,-0.20874
1679.18,-0.20851
1679.19,-0.2075
1679.2,-0.20774
1679.21,-0.20745
1679.22,-0.20708
1679.23,-0.20696
1679.24,-0.2067
1679.25,-0.20679
1679.26,-0.20677
1679.27,-0.20698
1679.28,-0.2077
1679.29,-0.20763
1679.3,-0.20807
1679.31,-0.20805
1679.32,-0.20869
1679.33,-0.20808
1679.34,-0.20904
1679.35,-0.20985
1679.36,-0.21005
1679.37,-0.21063
1679.38,-0.21122
1679.39,-0.2108
1679.4,-0.21124
1679.41,-0.21153
1679.42,-0.21118
1679.43,-0.21173
1679.44,-0.21218
1679.45,-0.21267
1679.46,-0.21405
1679.47,-0.21469
1679.48,-0.21605
1679.49,-0.21645
1679.5,-0.21769
1679.51,-0.21659
1679.52,-0.21582
1679.53,-0.21449
1679.54,-0.21266
1679.55,-0.21181
1679.56,-0.20964
1679.57,-0.20868
1679.58,-0.20804
1679.59,-0.20733
1679.6,-0.20661
1679.61,-0.2066
1679.62,-0.20657
1679.63,-0.20615
1679.64,-0.20597
1679.65,-0.20617
1679.66,-0.2053
1679.67,-0.20555
1679.68,-0.20545
1679.69,-0.2057
1679.7,-0.20604
1679.71,-0.20613
1679.72,-0.20706
1679.73,-0.20755
1679.74,-0.20795
1679.75,-0.20931
1679.76,-0.20933
1679.77,-0.21069
1679.78,-0.2117
1679.79,-0.21263
1679.8,-0.21421
1679.81,-0.21521
1679.82,-0.21641
1679.83,-0.21774
1679.84,-0.21817
1679.85,-0.21812
1679.86,-0.2177
1679.87,-0.21647
1679.88,-0.2157
1679.89,-0.21343
1679.9,-0.21179
1679.91,-0.21057
1679.92,-0.20962
1679.93,-0.20847
1679.94,-0.20708
1679.95,-0.20746
1679.96,-0.20644
1679.97,-0.2065
1679.98,-0.20556
1679.99,-0.20592
1680,-0.20561
